*** szafir SiO2 3 mkm 05-04-19	*START	Date: 2019-04-05	Time: 16:05:18
Current for R :1.000mA	Current 3-Omega5.000 mA		
					
Tsp[K]  	Tc[K]   	Ts[K]    	Rs[om]  	Po[mW]    	 Io[mA]
 45.0000	 45.0012	 41.6171	 97.6600	  2.4415	  5.0000
					
U3x[V]  	U3y[V]  	Phase[deg]	|U1|[V]  	F[Hz]    	Ts[K]  
4.224400E-4	2.410000E-6	-3.300000E-1	5.105650E-1	6.310000E+0	4.162900E+1
4.197100E-4	2.380000E-6	-3.800000E-1	5.133600E-1	7.940000E+0	4.163870E+1
4.259450E-4	2.207500E-6	-2.800000E-1	5.137000E-1	1.000000E+1	4.164000E+1
4.198625E-4	5.850000E-7	-4.600000E-1	5.137000E-1	1.260000E+1	4.166400E+1
4.224425E-4	2.282500E-6	-1.590000E+0	5.136750E-1	1.580000E+1	4.166770E+1
4.242125E-4	-2.415000E-6	-9.000000E-2	5.137000E-1	1.990000E+1	4.167640E+1
4.192675E-4	5.450000E-7	-7.000000E-2	5.136750E-1	2.510000E+1	4.167420E+1
4.196275E-4	6.325000E-7	-2.200000E-1	5.137000E-1	3.160000E+1	4.166960E+1
4.196350E-4	-6.250000E-8	-4.000000E-2	5.136000E-1	3.980000E+1	4.167360E+1
3.963425E-4	-4.530000E-6	1.570000E+0	5.134100E-1	5.010000E+1	4.167380E+1
4.193525E-4	-5.850000E-7	5.000000E-2	5.136000E-1	6.310000E+1	4.167930E+1
4.193700E-4	-7.625000E-7	1.100000E-1	5.135950E-1	7.940000E+1	4.167430E+1
4.197650E-4	-1.197500E-6	3.000000E-2	5.132300E-1	1.000000E+2	4.167310E+1
4.191950E-4	-1.420000E-6	1.800000E-1	5.136000E-1	1.260000E+2	4.167400E+1
4.192575E-4	-2.082500E-6	2.800000E-1	5.136000E-1	1.580000E+2	4.167550E+1
4.190950E-4	-2.470000E-6	3.800000E-1	5.136150E-1	1.990000E+2	4.167570E+1
4.190550E-4	-3.440000E-6	4.800000E-1	5.137000E-1	2.510000E+2	4.167380E+1
4.190750E-4	-4.175000E-6	5.900000E-1	5.137000E-1	3.160000E+2	4.167320E+1
4.189950E-4	-5.355000E-6	7.600000E-1	5.137100E-1	3.980000E+2	4.167910E+1
4.188125E-4	-6.585000E-6	8.800000E-1	5.138000E-1	5.010000E+2	4.167560E+1
4.186425E-4	-8.277500E-6	1.150000E+0	5.138000E-1	6.310000E+2	4.166920E+1
4.185275E-4	-1.026250E-5	1.430000E+0	5.138150E-1	7.940000E+2	4.167250E+1
4.194150E-4	-1.319250E-5	1.700000E+0	5.138700E-1	1.000000E+3	4.167460E+1
4.184750E-4	-1.600750E-5	2.180000E+0	5.139000E-1	1.260000E+3	4.167140E+1
4.178450E-4	-2.004000E-5	2.740000E+0	5.139000E-1	1.580000E+3	4.166920E+1
4.173050E-4	-2.540000E-5	3.510000E+0	5.139400E-1	1.990000E+3	4.167330E+1
4.184600E-4	-3.515250E-5	4.830000E+0	5.139750E-1	2.510000E+3	4.167310E+1
4.162375E-4	-4.314000E-5	5.910000E+0	5.140000E-1	3.160000E+3	4.167410E+1
4.158600E-4	-5.367250E-5	7.330000E+0	5.139000E-1	3.980000E+3	4.167110E+1
4.164700E-4	-6.756000E-5	9.250000E+0	5.139000E-1	5.010000E+3	4.166720E+1
4.154900E-4	-8.649000E-5	1.182000E+1	5.138000E-1	6.310000E+3	4.166810E+1
4.131875E-4	-1.120775E-4	1.522000E+1	5.136150E-1	7.940000E+3	4.167470E+1
4.052275E-4	-1.457675E-4	1.978000E+1	5.134300E-1	1.000000E+4	4.167450E+1
3.862250E-4	-1.762125E-4	2.455000E+1	5.132000E-1	1.260000E+4	4.167160E+1
3.756350E-4	-2.208950E-4	3.044000E+1	5.128000E-1	1.580000E+4	4.167170E+1
3.467525E-4	-2.611350E-4	3.700000E+1	5.122000E-1	1.990000E+4	4.167220E+1
3.324125E-4	-2.793325E-4	4.003000E+1	5.119000E-1	2.200000E+4	4.167400E+1
					
Tsp[K]  	Tc[K]   	Ts[K]    	Rs[om]  	Po[mW]    	 Io[mA]
 50.0000	 50.0084	 47.9344	 99.7470	  2.4937	  5.0000
					
U3x[V]  	U3y[V]  	Phase[deg]	|U1|[V]  	F[Hz]    	Ts[K]  
3.908575E-4	2.727500E-6	-5.100000E-1	5.201000E-1	6.310000E+0	4.792670E+1
3.857200E-4	2.420000E-6	-2.900000E-1	5.235100E-1	7.940000E+0	4.792800E+1
3.908625E-4	-3.367500E-6	3.700000E-1	5.243000E-1	1.000000E+1	4.793160E+1
3.852275E-4	1.455000E-6	-5.000000E-2	5.244300E-1	1.260000E+1	4.792550E+1
3.850350E-4	-5.250000E-7	2.570000E+0	5.244500E-1	1.580000E+1	4.792290E+1
3.859075E-4	6.205000E-6	-5.700000E-1	5.244000E-1	1.990000E+1	4.792580E+1
3.850300E-4	-7.250000E-8	1.400000E-1	5.244800E-1	2.510000E+1	4.792940E+1
3.844700E-4	-1.170000E-6	2.000000E-2	5.245000E-1	3.160000E+1	4.792450E+1
3.852900E-4	-4.600000E-7	-1.000000E-2	5.245000E-1	3.980000E+1	4.792530E+1
3.784825E-4	4.955000E-6	-1.299000E+1	5.248700E-1	5.010000E+1	4.791910E+1
3.853025E-4	-5.900000E-7	6.000000E-2	5.245000E-1	6.310000E+1	4.792430E+1
3.853325E-4	-9.000000E-7	1.400000E-1	5.245000E-1	7.940000E+1	4.793000E+1
3.846275E-4	-9.700000E-7	-7.000000E-2	5.245950E-1	1.000000E+2	4.792850E+1
3.853025E-4	-1.642500E-6	2.600000E-1	5.245000E-1	1.260000E+2	4.792300E+1
3.850475E-4	-2.185000E-6	3.300000E-1	5.245000E-1	1.580000E+2	4.792940E+1
3.849325E-4	-2.467500E-6	4.000000E-1	5.245050E-1	1.990000E+2	4.792700E+1
3.848475E-4	-3.152500E-6	5.000000E-1	5.245500E-1	2.510000E+2	4.792880E+1
3.847025E-4	-3.785000E-6	5.500000E-1	5.246000E-1	3.160000E+2	4.792820E+1
3.849300E-4	-4.937500E-6	7.100000E-1	5.246000E-1	3.980000E+2	4.792860E+1
3.844750E-4	-6.372500E-6	9.200000E-1	5.246550E-1	5.010000E+2	4.791850E+1
3.847050E-4	-7.992500E-6	1.200000E+0	5.247000E-1	6.310000E+2	4.792760E+1
3.845225E-4	-9.870000E-6	1.490000E+0	5.247000E-1	7.940000E+2	4.792140E+1
3.843575E-4	-1.187500E-5	1.820000E+0	5.247100E-1	1.000000E+3	4.792920E+1
3.844725E-4	-1.468000E-5	2.150000E+0	5.248000E-1	1.260000E+3	4.792620E+1
3.841550E-4	-1.827750E-5	2.780000E+0	5.249000E-1	1.580000E+3	4.792230E+1
3.834400E-4	-2.305000E-5	3.510000E+0	5.249000E-1	1.990000E+3	4.792310E+1
3.843650E-4	-3.258000E-5	4.870000E+0	5.249000E-1	2.510000E+3	4.792560E+1
3.823450E-4	-3.972250E-5	5.940000E+0	5.249050E-1	3.160000E+3	4.792650E+1
3.824300E-4	-4.924750E-5	7.340000E+0	5.248000E-1	3.980000E+3	4.792770E+1
3.828625E-4	-6.207500E-5	9.220000E+0	5.248000E-1	5.010000E+3	4.792720E+1
3.823075E-4	-7.984750E-5	1.183000E+1	5.247000E-1	6.310000E+3	4.792400E+1
3.806800E-4	-1.038000E-4	1.531000E+1	5.246000E-1	7.940000E+3	4.792510E+1
3.730425E-4	-1.342875E-4	1.975000E+1	5.244300E-1	1.000000E+4	4.792570E+1
3.552600E-4	-1.627925E-4	2.462000E+1	5.242000E-1	1.260000E+4	4.791830E+1
3.459250E-4	-2.033725E-4	3.044000E+1	5.237000E-1	1.580000E+4	4.792460E+1
3.207800E-4	-2.408275E-4	3.688000E+1	5.232000E-1	1.990000E+4	4.792370E+1
3.100875E-4	-2.571050E-4	3.970000E+1	5.228000E-1	2.200000E+4	4.792710E+1
					
Tsp[K]  	Tc[K]   	Ts[K]    	Rs[om]  	Po[mW]    	 Io[mA]
 55.0000	 54.9988	 53.8978	101.8440	  2.5461	  5.0000
					
U3x[V]  	U3y[V]  	Phase[deg]	|U1|[V]  	F[Hz]    	Ts[K]  
3.629950E-4	2.737500E-6	-5.100000E-1	5.290250E-1	6.310000E+0	5.390180E+1
3.611025E-4	2.180000E-6	-3.800000E-1	5.337050E-1	7.940000E+0	5.390750E+1
3.659475E-4	2.120000E-6	3.000000E-2	5.344000E-1	1.000000E+1	5.390340E+1
3.589850E-4	-2.847500E-6	4.200000E-1	5.345850E-1	1.260000E+1	5.390080E+1
3.586825E-4	5.000000E-9	6.400000E-1	5.345250E-1	1.580000E+1	5.390520E+1
3.585650E-4	3.482500E-6	8.300000E-1	5.345950E-1	1.990000E+1	5.390050E+1
3.596150E-4	7.000000E-7	-2.300000E-1	5.346000E-1	2.510000E+1	5.390660E+1
3.593450E-4	1.050000E-7	-8.000000E-2	5.346000E-1	3.160000E+1	5.389820E+1
3.596225E-4	-6.275000E-7	5.000000E-2	5.346000E-1	3.980000E+1	5.390300E+1
3.652400E-4	1.801750E-5	-6.620000E+0	5.344750E-1	5.010000E+1	5.390180E+1
3.595050E-4	-8.925000E-7	4.000000E-2	5.345800E-1	6.310000E+1	5.390130E+1
3.594725E-4	-1.095000E-6	1.700000E-1	5.346000E-1	7.940000E+1	5.390580E+1
3.581975E-4	1.000000E-6	-5.800000E-1	5.346800E-1	1.000000E+2	5.390340E+1
3.590975E-4	-1.707500E-6	3.000000E-1	5.345550E-1	1.260000E+2	5.390300E+1
3.591025E-4	-1.955000E-6	2.600000E-1	5.346000E-1	1.580000E+2	5.390090E+1
3.589050E-4	-2.297500E-6	3.800000E-1	5.345850E-1	1.990000E+2	5.389940E+1
3.589850E-4	-3.315000E-6	4.900000E-1	5.346000E-1	2.510000E+2	5.390220E+1
3.587800E-4	-3.672500E-6	5.700000E-1	5.346000E-1	3.160000E+2	5.390660E+1
3.587325E-4	-4.890000E-6	7.900000E-1	5.346650E-1	3.980000E+2	5.390430E+1
3.585925E-4	-5.665000E-6	9.100000E-1	5.347000E-1	5.010000E+2	5.390140E+1
3.586225E-4	-7.097500E-6	1.180000E+0	5.347550E-1	6.310000E+2	5.390140E+1
3.584675E-4	-9.312500E-6	1.500000E+0	5.348000E-1	7.940000E+2	5.390040E+1
3.587300E-4	-1.083000E-5	1.820000E+0	5.348000E-1	1.000000E+3	5.390620E+1
3.582500E-4	-1.369750E-5	2.200000E+0	5.348850E-1	1.260000E+3	5.390200E+1
3.577200E-4	-1.722250E-5	2.670000E+0	5.349000E-1	1.580000E+3	5.389720E+1
3.569550E-4	-2.160500E-5	3.480000E+0	5.349000E-1	1.990000E+3	5.390310E+1
3.577625E-4	-3.056500E-5	4.920000E+0	5.349000E-1	2.510000E+3	5.390480E+1
3.559050E-4	-3.702000E-5	6.010000E+0	5.349000E-1	3.160000E+3	5.390730E+1
3.559175E-4	-4.609000E-5	7.310000E+0	5.348000E-1	3.980000E+3	5.390320E+1
3.566550E-4	-5.824750E-5	9.290000E+0	5.348000E-1	5.010000E+3	5.390290E+1
3.564400E-4	-7.485000E-5	1.190000E+1	5.347000E-1	6.310000E+3	5.390360E+1
3.551475E-4	-9.767250E-5	1.540000E+1	5.346000E-1	7.940000E+3	5.390040E+1
3.453600E-4	-1.269875E-4	2.016000E+1	5.344150E-1	1.000000E+4	5.390130E+1
3.299525E-4	-1.525100E-4	2.475000E+1	5.341000E-1	1.260000E+4	5.390030E+1
3.229125E-4	-1.915700E-4	3.073000E+1	5.337000E-1	1.580000E+4	5.390410E+1
2.992775E-4	-2.258425E-4	3.706000E+1	5.331000E-1	1.990000E+4	5.389820E+1
2.918350E-4	-2.390575E-4	3.935000E+1	5.328000E-1	2.200000E+4	5.390620E+1
					
Tsp[K]  	Tc[K]   	Ts[K]    	Rs[om]  	Po[mW]    	 Io[mA]
 60.0000	 59.9974	 59.4874	103.8440	  2.5961	  5.0000
					
U3x[V]  	U3y[V]  	Phase[deg]	|U1|[V]  	F[Hz]    	Ts[K]  
3.448375E-4	2.472500E-6	-4.200000E-1	5.371650E-1	6.310000E+0	5.948020E+1
3.412650E-4	2.522500E-6	-4.800000E-1	5.426350E-1	7.940000E+0	5.948800E+1
3.481600E-4	-5.325000E-7	-3.100000E-1	5.436000E-1	1.000000E+1	5.948550E+1
3.423450E-4	-1.927500E-6	5.300000E-1	5.439700E-1	1.260000E+1	5.948220E+1
3.362775E-4	-1.915000E-6	2.480000E+0	5.440550E-1	1.580000E+1	5.948450E+1
3.390275E-4	3.675000E-7	-4.000000E-1	5.440000E-1	1.990000E+1	5.948430E+1
3.394675E-4	4.500000E-8	7.000000E-2	5.440000E-1	2.510000E+1	5.948220E+1
3.384875E-4	-3.800000E-7	1.500000E-1	5.440000E-1	3.160000E+1	5.948390E+1
3.391225E-4	-5.275000E-7	1.100000E-1	5.440500E-1	3.980000E+1	5.948370E+1
3.527675E-4	6.042500E-6	1.720000E+1	5.441700E-1	5.010000E+1	5.948450E+1
3.385425E-4	-9.250000E-7	1.600000E-1	5.440700E-1	6.310000E+1	5.948740E+1
3.383600E-4	-1.165000E-6	1.100000E-1	5.440650E-1	7.940000E+1	5.948300E+1
3.380500E-4	-1.890000E-6	5.100000E-1	5.446500E-1	1.000000E+2	5.948600E+1
3.382275E-4	-1.577500E-6	2.400000E-1	5.441000E-1	1.260000E+2	5.948460E+1
3.381825E-4	-2.010000E-6	3.300000E-1	5.441000E-1	1.580000E+2	5.948270E+1
3.381600E-4	-2.477500E-6	4.100000E-1	5.441000E-1	1.990000E+2	5.948490E+1
3.381700E-4	-3.085000E-6	5.300000E-1	5.441000E-1	2.510000E+2	5.948770E+1
3.380775E-4	-3.697500E-6	6.400000E-1	5.441450E-1	3.160000E+2	5.948670E+1
3.379300E-4	-4.550000E-6	7.500000E-1	5.442000E-1	3.980000E+2	5.948820E+1
3.380275E-4	-5.552500E-6	9.200000E-1	5.442000E-1	5.010000E+2	5.948570E+1
3.378000E-4	-6.825000E-6	1.120000E+0	5.443000E-1	6.310000E+2	5.948750E+1
3.376875E-4	-8.457500E-6	1.410000E+0	5.443000E-1	7.940000E+2	5.948500E+1
3.371800E-4	-1.043500E-5	1.880000E+0	5.443000E-1	1.000000E+3	5.948310E+1
3.373375E-4	-1.309500E-5	2.180000E+0	5.443500E-1	1.260000E+3	5.948060E+1
3.369375E-4	-1.622250E-5	2.740000E+0	5.444000E-1	1.580000E+3	5.948660E+1
3.363950E-4	-2.045500E-5	3.500000E+0	5.444000E-1	1.990000E+3	5.948460E+1
3.372750E-4	-2.908500E-5	4.940000E+0	5.444000E-1	2.510000E+3	5.948310E+1
3.353175E-4	-3.515750E-5	5.860000E+0	5.444750E-1	3.160000E+3	5.948440E+1
3.354175E-4	-4.346250E-5	7.460000E+0	5.443000E-1	3.980000E+3	5.948570E+1
3.362350E-4	-5.507500E-5	9.340000E+0	5.443000E-1	5.010000E+3	5.948480E+1
3.363900E-4	-7.070250E-5	1.184000E+1	5.442000E-1	6.310000E+3	5.948490E+1
3.351850E-4	-9.263750E-5	1.551000E+1	5.441000E-1	7.940000E+3	5.948430E+1
3.292025E-4	-1.162350E-4	1.956000E+1	5.438450E-1	1.000000E+4	5.948510E+1
3.103100E-4	-1.447950E-4	2.503000E+1	5.436000E-1	1.260000E+4	5.948090E+1
3.051950E-4	-1.817025E-4	3.075000E+1	5.432000E-1	1.580000E+4	5.947960E+1
2.830825E-4	-2.128475E-4	3.693000E+1	5.426000E-1	1.990000E+4	5.948490E+1
2.682500E-4	-2.257200E-4	4.002000E+1	5.423000E-1	2.200000E+4	5.948680E+1
					
Tsp[K]  	Tc[K]   	Ts[K]    	Rs[om]  	Po[mW]    	 Io[mA]
 65.0000	 65.0066	 64.8539	105.7580	  2.6440	  5.0000
					
U3x[V]  	U3y[V]  	Phase[deg]	|U1|[V]  	F[Hz]    	Ts[K]  
3.304875E-4	4.152500E-6	-7.000000E-1	5.443900E-1	6.310000E+0	6.484480E+1
3.258425E-4	7.575000E-7	-3.500000E-1	5.499350E-1	7.940000E+0	6.485580E+1
3.260675E-4	-5.480000E-6	7.700000E-1	5.520150E-1	1.000000E+1	6.485230E+1
3.233275E-4	6.775000E-7	7.000000E-2	5.527650E-1	1.260000E+1	6.485480E+1
3.229450E-4	-2.842500E-6	1.090000E+0	5.529000E-1	1.580000E+1	6.485000E+1
3.279350E-4	-4.857500E-6	1.280000E+0	5.529850E-1	1.990000E+1	6.485190E+1
3.233400E-4	-3.975000E-7	1.500000E-1	5.530000E-1	2.510000E+1	6.485110E+1
3.238625E-4	-1.842500E-6	-7.000000E-2	5.530000E-1	3.160000E+1	6.485250E+1
3.226500E-4	-1.030000E-6	1.700000E-1	5.530000E-1	3.980000E+1	6.485110E+1
3.220300E-4	7.155000E-6	-9.010000E+0	5.530700E-1	5.010000E+1	6.484970E+1
3.221325E-4	-1.015000E-6	2.200000E-1	5.530000E-1	6.310000E+1	6.485460E+1
3.222325E-4	-1.395000E-6	2.600000E-1	5.530000E-1	7.940000E+1	6.484970E+1
3.235375E-4	-4.052500E-6	-6.500000E-1	5.529050E-1	1.000000E+2	6.484830E+1
3.218675E-4	-1.705000E-6	2.600000E-1	5.530000E-1	1.260000E+2	6.485400E+1
3.219050E-4	-2.120000E-6	3.400000E-1	5.530000E-1	1.580000E+2	6.485630E+1
3.216675E-4	-2.480000E-6	4.900000E-1	5.530800E-1	1.990000E+2	6.484950E+1
3.216250E-4	-2.947500E-6	5.700000E-1	5.530550E-1	2.510000E+2	6.484890E+1
3.214700E-4	-3.585000E-6	6.300000E-1	5.531000E-1	3.160000E+2	6.484730E+1
3.214025E-4	-4.467500E-6	8.100000E-1	5.531000E-1	3.980000E+2	6.485490E+1
3.215525E-4	-5.465000E-6	9.700000E-1	5.531650E-1	5.010000E+2	6.484740E+1
3.214275E-4	-6.672500E-6	1.200000E+0	5.532000E-1	6.310000E+2	6.485040E+1
3.212850E-4	-8.212500E-6	1.440000E+0	5.532600E-1	7.940000E+2	6.485260E+1
3.213250E-4	-9.907500E-6	1.650000E+0	5.533000E-1	1.000000E+3	6.485020E+1
3.210450E-4	-1.300250E-5	2.270000E+0	5.533250E-1	1.260000E+3	6.485240E+1
3.204850E-4	-1.562250E-5	2.640000E+0	5.534000E-1	1.580000E+3	6.485250E+1
3.198300E-4	-1.964750E-5	3.510000E+0	5.534000E-1	1.990000E+3	6.485340E+1
3.206100E-4	-2.769750E-5	4.920000E+0	5.534000E-1	2.510000E+3	6.484910E+1
3.188050E-4	-3.347250E-5	6.000000E+0	5.535000E-1	3.160000E+3	6.485030E+1
3.190675E-4	-4.148500E-5	7.500000E+0	5.534000E-1	3.980000E+3	6.485120E+1
3.203025E-4	-5.233000E-5	9.230000E+0	5.534000E-1	5.010000E+3	6.485190E+1
3.207100E-4	-6.732750E-5	1.183000E+1	5.533000E-1	6.310000E+3	6.485220E+1
3.191125E-4	-8.789500E-5	1.539000E+1	5.532000E-1	7.940000E+3	6.485270E+1
3.090800E-4	-1.114375E-4	1.976000E+1	5.530150E-1	1.000000E+4	6.484760E+1
2.981625E-4	-1.278625E-4	2.326000E+1	5.528000E-1	1.260000E+4	6.485410E+1
2.906500E-4	-1.728800E-4	3.074000E+1	5.523000E-1	1.580000E+4	6.484780E+1
2.715300E-4	-2.027925E-4	3.674000E+1	5.518000E-1	1.990000E+4	6.485200E+1
2.573975E-4	-2.162500E-4	3.995000E+1	5.514150E-1	2.200000E+4	6.485210E+1
					
Tsp[K]  	Tc[K]   	Ts[K]    	Rs[om]  	Po[mW]    	 Io[mA]
 70.0000	 70.0005	 70.0444	107.6520	  2.6913	  5.0000
					
U3x[V]  	U3y[V]  	Phase[deg]	|U1|[V]  	F[Hz]    	Ts[K]  
3.192600E-4	2.602500E-6	-4.400000E-1	5.524850E-1	6.310000E+0	7.004030E+1
3.138375E-4	9.950000E-7	-1.000000E-1	5.581900E-1	7.940000E+0	7.004600E+1
3.148325E-4	6.572500E-6	-1.000000E+0	5.604300E-1	1.000000E+1	7.004560E+1
3.105000E-4	4.250000E-7	-1.100000E-1	5.615350E-1	1.260000E+1	7.004210E+1
3.089275E-4	-1.152500E-6	1.530000E+0	5.617200E-1	1.580000E+1	7.004760E+1
3.102575E-4	-4.400000E-7	7.000000E-2	5.617550E-1	1.990000E+1	7.004380E+1
3.101925E-4	-7.725000E-7	1.600000E-1	5.617000E-1	2.510000E+1	7.004480E+1
3.092550E-4	-1.682500E-6	1.800000E-1	5.617350E-1	3.160000E+1	7.004530E+1
3.093775E-4	-9.575000E-7	2.300000E-1	5.617550E-1	3.980000E+1	7.004110E+1
3.101450E-4	-3.135000E-6	-9.360000E+0	5.625500E-1	5.010000E+1	7.004070E+1
3.088700E-4	-1.367500E-6	2.400000E-1	5.617000E-1	6.310000E+1	7.004920E+1
3.087975E-4	-1.425000E-6	1.700000E-1	5.617750E-1	7.940000E+1	7.004670E+1
3.149450E-4	1.285000E-6	1.090000E+0	5.612300E-1	1.000000E+2	7.004250E+1
3.085825E-4	-1.885000E-6	3.200000E-1	5.617000E-1	1.260000E+2	7.004490E+1
3.083475E-4	-2.200000E-6	4.400000E-1	5.617000E-1	1.580000E+2	7.004510E+1
3.083925E-4	-2.337500E-6	4.400000E-1	5.617650E-1	1.990000E+2	7.004300E+1
3.079650E-4	-3.107500E-6	4.900000E-1	5.618000E-1	2.510000E+2	7.004990E+1
3.081500E-4	-3.605000E-6	7.000000E-1	5.618000E-1	3.160000E+2	7.004600E+1
3.079925E-4	-4.435000E-6	8.300000E-1	5.618650E-1	3.980000E+2	7.004910E+1
3.079975E-4	-5.380000E-6	9.800000E-1	5.618900E-1	5.010000E+2	7.005010E+1
3.077275E-4	-6.545000E-6	1.210000E+0	5.619000E-1	6.310000E+2	7.004520E+1
3.077250E-4	-7.895000E-6	1.410000E+0	5.620000E-1	7.940000E+2	7.004250E+1
3.077150E-4	-9.740000E-6	1.770000E+0	5.620000E-1	1.000000E+3	7.004280E+1
3.073075E-4	-1.219000E-5	2.290000E+0	5.620600E-1	1.260000E+3	7.004310E+1
3.071000E-4	-1.508500E-5	2.720000E+0	5.621000E-1	1.580000E+3	7.004810E+1
3.063500E-4	-1.892500E-5	3.550000E+0	5.621000E-1	1.990000E+3	7.004310E+1
3.070825E-4	-2.646750E-5	4.950000E+0	5.621650E-1	2.510000E+3	7.004610E+1
3.053825E-4	-3.215250E-5	6.040000E+0	5.622000E-1	3.160000E+3	7.004390E+1
3.055525E-4	-3.993750E-5	7.470000E+0	5.621000E-1	3.980000E+3	7.004360E+1
3.070275E-4	-5.001000E-5	9.270000E+0	5.621000E-1	5.010000E+3	7.004020E+1
3.074950E-4	-6.458250E-5	1.180000E+1	5.620000E-1	6.310000E+3	7.004470E+1
3.062800E-4	-8.487750E-5	1.544000E+1	5.619000E-1	7.940000E+3	7.004070E+1
2.981475E-4	-1.095600E-4	2.021000E+1	5.617700E-1	1.000000E+4	7.004620E+1
2.820750E-4	-1.324650E-4	2.512000E+1	5.614000E-1	1.260000E+4	7.003980E+1
2.785275E-4	-1.648775E-4	3.062000E+1	5.610000E-1	1.580000E+4	7.004240E+1
2.597525E-4	-1.934800E-4	3.671000E+1	5.604000E-1	1.990000E+4	7.004390E+1
2.544325E-4	-2.045725E-4	3.878000E+1	5.601000E-1	2.200000E+4	7.004480E+1
					
Tsp[K]  	Tc[K]   	Ts[K]    	Rs[om]  	Po[mW]    	 Io[mA]
 75.0000	 75.0047	 75.1010	109.4240	  2.7356	  5.0000
					
U3x[V]  	U3y[V]  	Phase[deg]	|U1|[V]  	F[Hz]    	Ts[K]  
3.080800E-4	1.682500E-6	-3.200000E-1	5.599700E-1	6.310000E+0	7.510440E+1
3.035925E-4	4.650000E-7	-7.000000E-2	5.657900E-1	7.940000E+0	7.510300E+1
2.945450E-4	3.285000E-6	-4.100000E-1	5.683300E-1	1.000000E+1	7.510520E+1
2.988925E-4	-6.475000E-7	1.000000E-1	5.697000E-1	1.260000E+1	7.510580E+1
2.989350E-4	1.122500E-6	-2.020000E+0	5.699850E-1	1.580000E+1	7.510410E+1
3.049500E-4	1.637500E-6	9.600000E-1	5.700000E-1	1.990000E+1	7.510290E+1
2.986375E-4	-1.320000E-6	4.400000E-1	5.699750E-1	2.510000E+1	7.510320E+1
2.987350E-4	-1.290000E-6	4.000000E-2	5.700000E-1	3.160000E+1	7.510020E+1
2.978250E-4	-1.165000E-6	3.000000E-1	5.700000E-1	3.980000E+1	7.510500E+1
3.037420E-4	-2.617000E-6	1.999000E+1	5.694950E-1	5.010000E+1	7.510130E+1
2.976400E-4	-1.507500E-6	2.100000E-1	5.700000E-1	6.310000E+1	7.510400E+1
2.976300E-4	-1.585000E-6	2.900000E-1	5.700000E-1	7.940000E+1	7.509850E+1
2.939175E-4	-4.445000E-6	1.060000E+0	5.696900E-1	1.000000E+2	7.510200E+1
2.971300E-4	-1.980000E-6	4.100000E-1	5.700000E-1	1.260000E+2	7.510350E+1
2.970750E-4	-2.405000E-6	4.900000E-1	5.700000E-1	1.580000E+2	7.510260E+1
2.968000E-4	-2.582500E-6	5.200000E-1	5.700000E-1	1.990000E+2	7.510220E+1
2.967925E-4	-3.242500E-6	6.300000E-1	5.700050E-1	2.510000E+2	7.510430E+1
2.966500E-4	-3.595000E-6	7.300000E-1	5.700850E-1	3.160000E+2	7.510210E+1
2.965150E-4	-4.345000E-6	8.600000E-1	5.701000E-1	3.980000E+2	7.510430E+1
2.964725E-4	-5.340000E-6	1.100000E+0	5.701250E-1	5.010000E+2	7.510200E+1
2.963400E-4	-6.427500E-6	1.260000E+0	5.702000E-1	6.310000E+2	7.510080E+1
2.962625E-4	-7.735000E-6	1.510000E+0	5.702000E-1	7.940000E+2	7.509660E+1
2.960075E-4	-9.477500E-6	1.850000E+0	5.703000E-1	1.000000E+3	7.510180E+1
2.958625E-4	-1.176000E-5	2.260000E+0	5.703000E-1	1.260000E+3	7.509910E+1
2.957375E-4	-1.521500E-5	2.870000E+0	5.703400E-1	1.580000E+3	7.510110E+1
2.947475E-4	-1.837500E-5	3.540000E+0	5.703000E-1	1.990000E+3	7.509540E+1
2.957450E-4	-2.576750E-5	4.930000E+0	5.703600E-1	2.510000E+3	7.510520E+1
2.941200E-4	-3.118250E-5	6.010000E+0	5.704000E-1	3.160000E+3	7.510290E+1
2.941050E-4	-3.845500E-5	7.480000E+0	5.703000E-1	3.980000E+3	7.510110E+1
2.958000E-4	-4.835250E-5	9.410000E+0	5.703000E-1	5.010000E+3	7.510480E+1
2.963300E-4	-6.251000E-5	1.189000E+1	5.702000E-1	6.310000E+3	7.510140E+1
2.954750E-4	-8.242000E-5	1.557000E+1	5.701000E-1	7.940000E+3	7.510000E+1
2.843625E-4	-1.023225E-4	1.986000E+1	5.698950E-1	1.000000E+4	7.509950E+1
2.710825E-4	-1.291600E-4	2.545000E+1	5.696000E-1	1.260000E+4	7.509760E+1
2.684700E-4	-1.599525E-4	3.080000E+1	5.691000E-1	1.580000E+4	7.510380E+1
2.510075E-4	-1.872400E-4	3.669000E+1	5.686000E-1	1.990000E+4	7.510480E+1
2.402300E-4	-1.981075E-4	3.946000E+1	5.682000E-1	2.200000E+4	7.510040E+1
					
Tsp[K]  	Tc[K]   	Ts[K]    	Rs[om]  	Po[mW]    	 Io[mA]
 80.0000	 79.9937	 80.3152	111.2350	  2.7809	  5.0000
					
U3x[V]  	U3y[V]  	Phase[deg]	|U1|[V]  	F[Hz]    	Ts[K]  
3.008050E-4	1.492500E-6	-2.600000E-1	5.656700E-1	6.310000E+0	8.030640E+1
2.948600E-4	8.500000E-7	-1.400000E-1	5.725350E-1	7.940000E+0	8.031850E+1
2.954575E-4	-4.267500E-6	1.030000E+0	5.755450E-1	1.000000E+1	8.031440E+1
2.899675E-4	-1.047500E-6	-2.000000E-1	5.777000E-1	1.260000E+1	8.031380E+1
2.883375E-4	-1.600000E-7	3.900000E-1	5.781000E-1	1.580000E+1	8.031130E+1
2.890700E-4	5.775000E-7	-4.800000E-1	5.782000E-1	1.990000E+1	8.031450E+1
2.889800E-4	-1.195000E-6	3.200000E-1	5.782000E-1	2.510000E+1	8.031780E+1
2.879700E-4	-1.785000E-6	1.900000E-1	5.782000E-1	3.160000E+1	8.031050E+1
2.884000E-4	-1.435000E-6	2.600000E-1	5.782000E-1	3.980000E+1	8.031730E+1
2.840175E-4	-9.090000E-6	3.280000E+0	5.780200E-1	5.010000E+1	8.031020E+1
2.879250E-4	-1.510000E-6	3.500000E-1	5.781000E-1	6.310000E+1	8.031830E+1
2.872575E-4	-1.632500E-6	2.400000E-1	5.781000E-1	7.940000E+1	8.031130E+1
2.864475E-4	-9.925000E-7	1.300000E-1	5.783250E-1	1.000000E+2	8.031390E+1
2.869400E-4	-2.087500E-6	3.800000E-1	5.781000E-1	1.260000E+2	8.031150E+1
2.872025E-4	-2.505000E-6	4.700000E-1	5.781000E-1	1.580000E+2	8.031380E+1
2.867775E-4	-2.657500E-6	5.200000E-1	5.781000E-1	1.990000E+2	8.030940E+1
2.868000E-4	-3.182500E-6	6.200000E-1	5.781000E-1	2.510000E+2	8.030720E+1
2.864575E-4	-3.697500E-6	7.300000E-1	5.781350E-1	3.160000E+2	8.031290E+1
2.864950E-4	-4.512500E-6	9.300000E-1	5.782000E-1	3.980000E+2	8.030860E+1
2.862450E-4	-5.212500E-6	1.000000E+0	5.782000E-1	5.010000E+2	8.030890E+1
2.863325E-4	-6.295000E-6	1.430000E+0	5.782450E-1	6.310000E+2	8.030530E+1
2.860975E-4	-7.867500E-6	1.550000E+0	5.783000E-1	7.940000E+2	8.030850E+1
2.857500E-4	-9.477500E-6	1.930000E+0	5.783050E-1	1.000000E+3	8.031230E+1
2.856250E-4	-1.176750E-5	2.370000E+0	5.783500E-1	1.260000E+3	8.030990E+1
2.854650E-4	-1.480750E-5	2.930000E+0	5.784000E-1	1.580000E+3	8.030880E+1
2.844725E-4	-1.798750E-5	3.560000E+0	5.783800E-1	1.990000E+3	8.031350E+1
2.854700E-4	-2.502500E-5	5.080000E+0	5.784000E-1	2.510000E+3	8.031360E+1
2.840950E-4	-3.044250E-5	6.020000E+0	5.784100E-1	3.160000E+3	8.031590E+1
2.843025E-4	-3.739500E-5	7.460000E+0	5.783050E-1	3.980000E+3	8.030880E+1
2.858200E-4	-4.719250E-5	9.220000E+0	5.783000E-1	5.010000E+3	8.031220E+1
2.861550E-4	-6.082000E-5	1.193000E+1	5.782000E-1	6.310000E+3	8.031440E+1
2.853200E-4	-8.053750E-5	1.578000E+1	5.781000E-1	7.940000E+3	8.031100E+1
2.767925E-4	-9.960000E-5	1.984000E+1	5.779400E-1	1.000000E+4	8.030920E+1
2.612850E-4	-1.254650E-4	2.562000E+1	5.775100E-1	1.260000E+4	8.031400E+1
2.586450E-4	-1.560475E-4	3.111000E+1	5.771000E-1	1.580000E+4	8.030900E+1
2.420325E-4	-1.816900E-4	3.690000E+1	5.764000E-1	1.990000E+4	8.030980E+1
2.376550E-4	-1.943825E-4	3.934000E+1	5.761000E-1	2.200000E+4	8.031200E+1
					
Tsp[K]  	Tc[K]   	Ts[K]    	Rs[om]  	Po[mW]    	 Io[mA]
 85.0000	 84.9995	 85.6669	112.9890	  2.8247	  5.0000
					
U3x[V]  	U3y[V]  	Phase[deg]	|U1|[V]  	F[Hz]    	Ts[K]  
2.896375E-4	9.350000E-7	0.000000E+0	5.735450E-1	6.310000E+0	8.566650E+1
2.850075E-4	-1.625000E-7	8.000000E-2	5.807150E-1	7.940000E+0	8.566910E+1
2.863325E-4	7.315000E-6	-1.120000E+0	5.834400E-1	1.000000E+1	8.567120E+1
2.817525E-4	-1.190000E-6	-3.300000E-1	5.855050E-1	1.260000E+1	8.567150E+1
2.769225E-4	-1.540000E-6	3.470000E+0	5.859150E-1	1.580000E+1	8.566900E+1
2.747650E-4	-2.777500E-6	1.850000E+0	5.860200E-1	1.990000E+1	8.567200E+1
2.805100E-4	-1.270000E-6	5.000000E-1	5.860000E-1	2.510000E+1	8.567140E+1
2.798950E-4	-1.322500E-6	5.800000E-1	5.860000E-1	3.160000E+1	8.566830E+1
2.792300E-4	-1.722500E-6	3.700000E-1	5.860000E-1	3.980000E+1	8.566470E+1
2.838390E-4	-2.784000E-6	8.000000E+0	5.861350E-1	5.010000E+1	8.566600E+1
2.788650E-4	-1.702500E-6	4.600000E-1	5.859000E-1	6.310000E+1	8.566820E+1
2.786650E-4	-1.757500E-6	3.900000E-1	5.859050E-1	7.940000E+1	8.566550E+1
2.788400E-4	-1.897500E-6	4.000000E-1	5.860200E-1	1.000000E+2	8.566590E+1
2.782275E-4	-2.102500E-6	4.100000E-1	5.859000E-1	1.260000E+2	8.566460E+1
2.778025E-4	-2.427500E-6	5.200000E-1	5.859000E-1	1.580000E+2	8.566410E+1
2.778475E-4	-2.680000E-6	5.500000E-1	5.859600E-1	1.990000E+2	8.566330E+1
2.777375E-4	-3.102500E-6	6.400000E-1	5.860000E-1	2.510000E+2	8.566340E+1
2.776100E-4	-3.752500E-6	7.800000E-1	5.860000E-1	3.160000E+2	8.566430E+1
2.774500E-4	-4.435000E-6	9.600000E-1	5.860000E-1	3.980000E+2	8.567130E+1
2.772525E-4	-5.280000E-6	1.100000E+0	5.860000E-1	5.010000E+2	8.567470E+1
2.771775E-4	-6.440000E-6	1.330000E+0	5.861000E-1	6.310000E+2	8.566730E+1
2.768825E-4	-7.677500E-6	1.630000E+0	5.861000E-1	7.940000E+2	8.566460E+1
2.770700E-4	-9.285000E-6	1.980000E+0	5.861000E-1	1.000000E+3	8.566720E+1
2.765375E-4	-1.169250E-5	2.490000E+0	5.861050E-1	1.260000E+3	8.566690E+1
2.761425E-4	-1.424250E-5	2.940000E+0	5.862000E-1	1.580000E+3	8.566670E+1
2.753300E-4	-1.800000E-5	3.770000E+0	5.862000E-1	1.990000E+3	8.566990E+1
2.763075E-4	-2.455000E-5	5.020000E+0	5.862000E-1	2.510000E+3	8.567060E+1
2.747500E-4	-2.984250E-5	6.320000E+0	5.862000E-1	3.160000E+3	8.566630E+1
2.752100E-4	-3.680000E-5	7.510000E+0	5.861000E-1	3.980000E+3	8.567020E+1
2.584900E-4	-4.096750E-5	8.970000E+0	5.860000E-1	5.010000E+3	8.566280E+1
2.769275E-4	-6.010250E-5	1.211000E+1	5.858000E-1	6.310000E+3	8.566590E+1
2.757925E-4	-7.988000E-5	1.612000E+1	5.857000E-1	7.940000E+3	8.566720E+1
2.702650E-4	-1.016300E-4	2.040000E+1	5.855300E-1	1.000000E+4	8.567110E+1
2.508725E-4	-1.238475E-4	2.621000E+1	5.852000E-1	1.260000E+4	8.566310E+1
2.492550E-4	-1.526050E-4	3.146000E+1	5.848000E-1	1.580000E+4	8.566570E+1
2.335875E-4	-1.779800E-4	3.728000E+1	5.841000E-1	1.990000E+4	8.566580E+1
2.218625E-4	-1.879175E-4	4.035000E+1	5.838000E-1	2.200000E+4	8.566650E+1
					
Tsp[K]  	Tc[K]   	Ts[K]    	Rs[om]  	Po[mW]    	 Io[mA]
 90.0000	 89.9933	 90.9859	114.6970	  2.8674	  5.0000
					
U3x[V]  	U3y[V]  	Phase[deg]	|U1|[V]  	F[Hz]    	Ts[K]  
2.843925E-4	5.900000E-7	-1.100000E-1	5.792800E-1	6.310000E+0	9.097930E+1
2.783650E-4	-1.200000E-7	3.000000E-2	5.863750E-1	7.940000E+0	9.097750E+1
2.700675E-4	3.307500E-6	-7.600000E-1	5.898200E-1	1.000000E+1	9.097920E+1
2.725775E-4	-2.195000E-6	5.500000E-1	5.927750E-1	1.260000E+1	9.098670E+1
2.723150E-4	-2.510000E-6	1.370000E+0	5.933400E-1	1.580000E+1	9.098170E+1
2.803525E-4	-3.495000E-6	7.800000E-1	5.935200E-1	1.990000E+1	9.097790E+1
2.725525E-4	-1.187500E-6	1.900000E-1	5.935500E-1	2.510000E+1	9.097860E+1
2.721975E-4	-1.707500E-6	4.600000E-1	5.935000E-1	3.160000E+1	9.098590E+1
2.719875E-4	-1.697500E-6	3.400000E-1	5.935050E-1	3.980000E+1	9.098140E+1
2.754150E-4	4.307500E-6	-8.570000E+0	5.925550E-1	5.010000E+1	9.098200E+1
2.714150E-4	-1.967500E-6	4.200000E-1	5.934800E-1	6.310000E+1	9.097900E+1
2.713775E-4	-2.017500E-6	3.700000E-1	5.934750E-1	7.940000E+1	9.098120E+1
2.711550E-4	-1.870000E-6	5.600000E-1	5.933000E-1	1.000000E+2	9.098290E+1
2.707800E-4	-2.350000E-6	5.300000E-1	5.935000E-1	1.260000E+2	9.098090E+1
2.704825E-4	-2.642500E-6	5.800000E-1	5.934800E-1	1.580000E+2	9.098040E+1
2.702000E-4	-2.797500E-6	5.800000E-1	5.935000E-1	1.990000E+2	9.098000E+1
2.702675E-4	-3.295000E-6	6.900000E-1	5.935000E-1	2.510000E+2	9.097910E+1
2.700775E-4	-3.870000E-6	8.400000E-1	5.935000E-1	3.160000E+2	9.097510E+1
2.698250E-4	-4.482500E-6	9.300000E-1	5.935000E-1	3.980000E+2	9.098570E+1
2.696925E-4	-5.337500E-6	1.160000E+0	5.936000E-1	5.010000E+2	9.098310E+1
2.695900E-4	-6.345000E-6	1.340000E+0	5.936000E-1	6.310000E+2	9.097750E+1
2.692675E-4	-7.657500E-6	1.670000E+0	5.937000E-1	7.940000E+2	9.098150E+1
2.690150E-4	-9.372500E-6	1.990000E+0	5.937000E-1	1.000000E+3	9.097780E+1
2.689575E-4	-1.156750E-5	2.500000E+0	5.937000E-1	1.260000E+3	9.097890E+1
2.685775E-4	-1.428000E-5	3.040000E+0	5.938000E-1	1.580000E+3	9.097340E+1
2.675975E-4	-1.782500E-5	3.930000E+0	5.938000E-1	1.990000E+3	9.097270E+1
2.687900E-4	-2.426000E-5	5.230000E+0	5.938000E-1	2.510000E+3	9.098040E+1
2.669425E-4	-2.940500E-5	6.380000E+0	5.938000E-1	3.160000E+3	9.097740E+1
2.679875E-4	-3.627250E-5	7.740000E+0	5.937000E-1	3.980000E+3	9.097840E+1
2.502875E-4	-4.134250E-5	9.260000E+0	5.937000E-1	5.010000E+3	9.097770E+1
2.693425E-4	-5.932750E-5	1.244000E+1	5.934000E-1	6.310000E+3	9.098050E+1
2.678825E-4	-7.889250E-5	1.649000E+1	5.933900E-1	7.940000E+3	9.098160E+1
2.597850E-4	-1.009450E-4	2.130000E+1	5.932300E-1	1.000000E+4	9.097610E+1
2.425450E-4	-1.218550E-4	2.673000E+1	5.928000E-1	1.260000E+4	9.097510E+1
2.420100E-4	-1.494000E-4	3.166000E+1	5.923000E-1	1.580000E+4	9.097910E+1
2.265550E-4	-1.752175E-4	3.774000E+1	5.917000E-1	1.990000E+4	9.098000E+1
2.172100E-4	-1.829800E-4	4.007000E+1	5.913000E-1	2.200000E+4	9.097820E+1
					
Tsp[K]  	Tc[K]   	Ts[K]    	Rs[om]  	Po[mW]    	 Io[mA]
 95.0000	 94.9937	 96.2566	116.3760	  2.9094	  5.0000
					
U3x[V]  	U3y[V]  	Phase[deg]	|U1|[V]  	F[Hz]    	Ts[K]  
2.774375E-4	3.200000E-7	-7.000000E-2	5.866600E-1	6.310000E+0	9.625350E+1
2.729775E-4	-6.950000E-7	1.100000E-1	5.932850E-1	7.940000E+0	9.625150E+1
2.681200E-4	6.085000E-6	-1.270000E+0	5.967500E-1	1.000000E+1	9.625440E+1
2.682125E-4	-2.907500E-6	-1.000000E-1	5.989000E-1	1.260000E+1	9.625130E+1
2.667250E-4	-4.365000E-6	1.120000E+0	6.004950E-1	1.580000E+1	9.624970E+1
2.718875E-4	2.880000E-6	-7.100000E-1	6.010000E-1	1.990000E+1	9.625610E+1
2.670150E-4	-1.762500E-6	3.400000E-1	6.010500E-1	2.510000E+1	9.624960E+1
2.659675E-4	-1.947500E-6	4.500000E-1	6.010750E-1	3.160000E+1	9.625410E+1
2.658850E-4	-1.977500E-6	5.000000E-1	6.010150E-1	3.980000E+1	9.624820E+1
2.732380E-4	-3.820000E-7	1.383000E+1	6.018450E-1	5.010000E+1	9.624940E+1
2.649075E-4	-2.295000E-6	4.900000E-1	6.010150E-1	6.310000E+1	9.624790E+1
2.648550E-4	-2.107500E-6	5.400000E-1	6.010150E-1	7.940000E+1	9.625210E+1
2.644975E-4	-1.477500E-6	2.800000E-1	6.009400E-1	1.000000E+2	9.625230E+1
2.643950E-4	-2.470000E-6	5.700000E-1	6.010000E-1	1.260000E+2	9.624850E+1
2.640175E-4	-2.770000E-6	6.000000E-1	6.010000E-1	1.580000E+2	9.624670E+1
2.639400E-4	-3.012500E-6	6.500000E-1	6.010000E-1	1.990000E+2	9.625440E+1
2.637325E-4	-3.480000E-6	8.000000E-1	6.010150E-1	2.510000E+2	9.625160E+1
2.635725E-4	-3.907500E-6	8.500000E-1	6.010450E-1	3.160000E+2	9.624900E+1
2.633950E-4	-4.545000E-6	1.010000E+0	6.011000E-1	3.980000E+2	9.625260E+1
2.632325E-4	-5.455000E-6	1.310000E+0	6.011100E-1	5.010000E+2	9.625560E+1
2.632350E-4	-6.552500E-6	1.400000E+0	6.012000E-1	6.310000E+2	9.624940E+1
2.630150E-4	-7.812500E-6	1.660000E+0	6.012000E-1	7.940000E+2	9.625070E+1
2.628175E-4	-9.315000E-6	2.050000E+0	6.012000E-1	1.000000E+3	9.625450E+1
2.625375E-4	-1.164250E-5	2.520000E+0	6.013000E-1	1.260000E+3	9.625270E+1
2.619875E-4	-1.441250E-5	3.140000E+0	6.013100E-1	1.580000E+3	9.625040E+1
2.608950E-4	-1.794250E-5	3.890000E+0	6.013000E-1	1.990000E+3	9.624910E+1
2.591525E-4	-2.220750E-5	4.940000E+0	6.013600E-1	2.510000E+3	9.625270E+1
2.607300E-4	-2.911500E-5	6.370000E+0	6.013950E-1	3.160000E+3	9.624870E+1
2.610375E-4	-3.596750E-5	8.060000E+0	6.012900E-1	3.980000E+3	9.624580E+1
2.431925E-4	-4.167500E-5	9.690000E+0	6.012000E-1	5.010000E+3	9.625240E+1
2.627250E-4	-5.836500E-5	1.251000E+1	6.010250E-1	6.310000E+3	9.624800E+1
2.610650E-4	-7.781250E-5	1.661000E+1	6.010000E-1	7.940000E+3	9.624930E+1
2.549900E-4	-9.967000E-5	2.150000E+1	6.008450E-1	1.000000E+4	9.624930E+1
2.353650E-4	-1.202250E-4	2.699000E+1	6.005000E-1	1.260000E+4	9.625210E+1
2.354950E-4	-1.486725E-4	3.230000E+1	6.000000E-1	1.580000E+4	9.624900E+1
2.208775E-4	-1.714225E-4	3.778000E+1	5.993000E-1	1.990000E+4	9.624800E+1
2.157700E-4	-1.843050E-4	4.052000E+1	5.989000E-1	2.200000E+4	9.625260E+1
					
Tsp[K]  	Tc[K]   	Ts[K]    	Rs[om]  	Po[mW]    	 Io[mA]
100.0000	 99.9902	101.5475	118.0570	  2.9514	  5.0000
					
U3x[V]  	U3y[V]  	Phase[deg]	|U1|[V]  	F[Hz]    	Ts[K]  
2.712750E-4	-4.250000E-7	1.500000E-1	5.941150E-1	6.310000E+0	1.015333E+2
2.674450E-4	-1.287500E-6	2.500000E-1	6.005400E-1	7.940000E+0	1.015458E+2
2.618550E-4	4.865000E-6	-1.130000E+0	6.039600E-1	1.000000E+1	1.015426E+2
2.634700E-4	-2.225000E-6	4.300000E-1	6.062200E-1	1.260000E+1	1.015382E+2
2.626925E-4	-3.722500E-6	-1.610000E+0	6.077800E-1	1.580000E+1	1.015371E+2
2.638550E-4	-6.967500E-6	1.900000E+0	6.083000E-1	1.990000E+1	1.015388E+2
2.609100E-4	-1.830000E-6	3.700000E-1	6.084300E-1	2.510000E+1	1.015443E+2
2.610850E-4	-2.275000E-6	5.200000E-1	6.085000E-1	3.160000E+1	1.015472E+2
2.603075E-4	-2.045000E-6	5.000000E-1	6.084550E-1	3.980000E+1	1.015382E+2
2.601590E-4	1.103400E-5	-1.320000E+0	6.079350E-1	5.010000E+1	1.015425E+2
2.598550E-4	-2.107500E-6	4.700000E-1	6.084000E-1	6.310000E+1	1.015471E+2
2.592875E-4	-2.270000E-6	5.100000E-1	6.084000E-1	7.940000E+1	1.015457E+2
2.594025E-4	-2.665000E-6	6.900000E-1	6.084250E-1	1.000000E+2	1.015433E+2
2.587075E-4	-2.417500E-6	5.500000E-1	6.084000E-1	1.260000E+2	1.015433E+2
2.584225E-4	-2.860000E-6	6.400000E-1	6.084000E-1	1.580000E+2	1.015353E+2
2.581075E-4	-3.050000E-6	7.500000E-1	6.084000E-1	1.990000E+2	1.015413E+2
2.580450E-4	-3.507500E-6	8.100000E-1	6.084050E-1	2.510000E+2	1.015453E+2
2.577675E-4	-4.412500E-6	7.900000E-1	6.084900E-1	3.160000E+2	1.015390E+2
2.576975E-4	-4.692500E-6	1.040000E+0	6.084800E-1	3.980000E+2	1.015423E+2
2.574850E-4	-5.495000E-6	1.180000E+0	6.085000E-1	5.010000E+2	1.015479E+2
2.573875E-4	-6.557500E-6	1.430000E+0	6.086000E-1	6.310000E+2	1.015425E+2
2.573175E-4	-7.952500E-6	1.790000E+0	6.086000E-1	7.940000E+2	1.015379E+2
2.569375E-4	-9.902500E-6	2.030000E+0	6.086000E-1	1.000000E+3	1.015400E+2
2.567050E-4	-1.192250E-5	2.640000E+0	6.086000E-1	1.260000E+3	1.015387E+2
2.563800E-4	-1.459250E-5	3.230000E+0	6.087000E-1	1.580000E+3	1.015434E+2
2.558775E-4	-1.828750E-5	4.010000E+0	6.087000E-1	1.990000E+3	1.015369E+2
2.532925E-4	-2.241000E-5	5.120000E+0	6.086850E-1	2.510000E+3	1.015383E+2
2.550000E-4	-2.899250E-5	6.310000E+0	6.087000E-1	3.160000E+3	1.015484E+2
2.554200E-4	-3.564500E-5	8.030000E+0	6.086000E-1	3.980000E+3	1.015426E+2
2.368500E-4	-4.247500E-5	1.016000E+1	6.085000E-1	5.010000E+3	1.015424E+2
2.574775E-4	-5.842250E-5	1.278000E+1	6.083000E-1	6.310000E+3	1.015455E+2
2.552150E-4	-7.779000E-5	1.696000E+1	6.082000E-1	7.940000E+3	1.015439E+2
2.455475E-4	-9.990250E-5	2.211000E+1	6.080100E-1	1.000000E+4	1.015422E+2
2.288975E-4	-1.191200E-4	2.738000E+1	6.077000E-1	1.260000E+4	1.015415E+2
2.297900E-4	-1.471400E-4	3.255000E+1	6.072000E-1	1.580000E+4	1.015414E+2
2.154775E-4	-1.682000E-4	3.804000E+1	6.065000E-1	1.990000E+4	1.015323E+2
2.090050E-4	-1.803500E-4	4.077000E+1	6.061000E-1	2.200000E+4	1.015414E+2
					
Tsp[K]  	Tc[K]   	Ts[K]    	Rs[om]  	Po[mW]    	 Io[mA]
105.0000	104.9943	106.8339	119.6560	  2.9914	  5.0000
					
U3x[V]  	U3y[V]  	Phase[deg]	|U1|[V]  	F[Hz]    	Ts[K]  
2.664750E-4	-5.450000E-7	1.600000E-1	6.008850E-1	6.310000E+0	1.068312E+2
2.623700E-4	-1.375000E-6	2.300000E-1	6.072800E-1	7.940000E+0	1.068393E+2
2.550475E-4	-7.195000E-6	1.620000E+0	6.111850E-1	1.000000E+1	1.068301E+2
2.580900E-4	-3.072500E-6	4.300000E-1	6.140550E-1	1.260000E+1	1.068365E+2
2.566175E-4	1.142500E-6	1.100000E-1	6.153250E-1	1.580000E+1	1.068326E+2
2.522025E-4	-1.720000E-6	6.800000E-1	6.157100E-1	1.990000E+1	1.068341E+2
2.564075E-4	-2.235000E-6	6.600000E-1	6.158200E-1	2.510000E+1	1.068374E+2
2.563250E-4	-2.322500E-6	5.700000E-1	6.159000E-1	3.160000E+1	1.068393E+2
2.558025E-4	-2.282500E-6	5.000000E-1	6.158000E-1	3.980000E+1	1.068339E+2
2.553550E-4	-5.830000E-6	-2.509000E+1	6.161800E-1	5.010000E+1	1.068410E+2
2.551875E-4	-2.267500E-6	5.100000E-1	6.157650E-1	6.310000E+1	1.068354E+2
2.548025E-4	-2.480000E-6	5.700000E-1	6.157000E-1	7.940000E+1	1.068371E+2
2.547250E-4	-2.885000E-6	7.800000E-1	6.156600E-1	1.000000E+2	1.068424E+2
2.542075E-4	-2.720000E-6	6.300000E-1	6.157100E-1	1.260000E+2	1.068350E+2
2.539075E-4	-2.960000E-6	7.000000E-1	6.157150E-1	1.580000E+2	1.068405E+2
2.536200E-4	-3.165000E-6	6.700000E-1	6.157650E-1	1.990000E+2	1.068378E+2
2.533825E-4	-3.577500E-6	8.400000E-1	6.158000E-1	2.510000E+2	1.068324E+2
2.531825E-4	-4.152500E-6	9.200000E-1	6.158000E-1	3.160000E+2	1.068322E+2
2.530275E-4	-4.937500E-6	1.060000E+0	6.158000E-1	3.980000E+2	1.068315E+2
2.528500E-4	-5.662500E-6	1.320000E+0	6.159000E-1	5.010000E+2	1.068448E+2
2.528150E-4	-6.657500E-6	1.490000E+0	6.159150E-1	6.310000E+2	1.068375E+2
2.526275E-4	-8.102500E-6	1.840000E+0	6.160000E-1	7.940000E+2	1.068368E+2
2.523300E-4	-1.007750E-5	2.150000E+0	6.160000E-1	1.000000E+3	1.068373E+2
2.520850E-4	-1.207750E-5	2.750000E+0	6.160150E-1	1.260000E+3	1.068330E+2
2.517625E-4	-1.470500E-5	3.320000E+0	6.161000E-1	1.580000E+3	1.068454E+2
2.510525E-4	-1.828000E-5	4.090000E+0	6.161000E-1	1.990000E+3	1.068414E+2
2.484275E-4	-2.248250E-5	5.240000E+0	6.160000E-1	2.510000E+3	1.068424E+2
2.502450E-4	-2.903500E-5	6.450000E+0	6.160000E-1	3.160000E+3	1.068344E+2
2.507175E-4	-3.575000E-5	8.070000E+0	6.159100E-1	3.980000E+3	1.068384E+2
2.522550E-4	-4.492000E-5	1.013000E+1	6.159000E-1	5.010000E+3	1.068389E+2
2.527225E-4	-5.824000E-5	1.290000E+1	6.158000E-1	6.310000E+3	1.068344E+2
2.503650E-4	-7.740500E-5	1.714000E+1	6.156000E-1	7.940000E+3	1.068334E+2
2.418800E-4	-9.656500E-5	2.178000E+1	6.154000E-1	1.000000E+4	1.068364E+2
2.229300E-4	-1.181175E-4	2.794000E+1	6.151000E-1	1.260000E+4	1.068336E+2
2.241950E-4	-1.457500E-4	3.303000E+1	6.145750E-1	1.580000E+4	1.068382E+2
2.108700E-4	-1.668550E-4	3.830000E+1	6.138800E-1	1.990000E+4	1.068392E+2
2.034825E-4	-1.781025E-4	4.113000E+1	6.135000E-1	2.200000E+4	1.068319E+2
					
Tsp[K]  	Tc[K]   	Ts[K]    	Rs[om]  	Po[mW]    	 Io[mA]
110.0000	109.9903	111.9539	121.2620	  3.0316	  5.0000
					
U3x[V]  	U3y[V]  	Phase[deg]	|U1|[V]  	F[Hz]    	Ts[K]  
2.622475E-4	-1.210000E-6	2.600000E-1	6.084500E-1	6.310000E+0	1.119453E+2
2.583150E-4	-1.480000E-6	3.300000E-1	6.144300E-1	7.940000E+0	1.119438E+2
2.511125E-4	-1.482500E-6	3.200000E-1	6.181550E-1	1.000000E+1	1.119415E+2
2.562400E-4	-2.427500E-6	9.100000E-1	6.202950E-1	1.260000E+1	1.119480E+2
2.543775E-4	-2.902500E-6	1.340000E+0	6.222200E-1	1.580000E+1	1.119429E+2
2.514475E-4	8.000000E-8	7.000000E-2	6.228000E-1	1.990000E+1	1.119498E+2
2.531275E-4	-2.225000E-6	5.600000E-1	6.229400E-1	2.510000E+1	1.119481E+2
2.524425E-4	-2.530000E-6	6.300000E-1	6.230000E-1	3.160000E+1	1.119447E+2
2.521925E-4	-2.510000E-6	6.100000E-1	6.230000E-1	3.980000E+1	1.119472E+2
2.683300E-4	-3.800000E-6	2.034000E+1	6.230750E-1	5.010000E+1	1.119413E+2
2.517200E-4	-2.722500E-6	5.900000E-1	6.231800E-1	6.310000E+1	1.119490E+2
2.509175E-4	-2.607500E-6	6.600000E-1	6.231400E-1	7.940000E+1	1.119431E+2
2.513975E-4	-2.792500E-6	6.700000E-1	6.233100E-1	1.000000E+2	1.119383E+2
2.506400E-4	-2.642500E-6	5.500000E-1	6.232200E-1	1.260000E+2	1.119338E+2
2.501875E-4	-3.185000E-6	7.700000E-1	6.233000E-1	1.580000E+2	1.119417E+2
2.500350E-4	-3.192500E-6	7.300000E-1	6.233000E-1	1.990000E+2	1.119478E+2
2.497275E-4	-3.705000E-6	7.900000E-1	6.233200E-1	2.510000E+2	1.119400E+2
2.495050E-4	-4.052500E-6	9.600000E-1	6.233900E-1	3.160000E+2	1.119360E+2
2.493500E-4	-4.910000E-6	1.130000E+0	6.234000E-1	3.980000E+2	1.119426E+2
2.493050E-4	-5.770000E-6	1.410000E+0	6.235000E-1	5.010000E+2	1.119428E+2
2.491475E-4	-6.760000E-6	1.630000E+0	6.235300E-1	6.310000E+2	1.119456E+2
2.487550E-4	-8.125000E-6	1.780000E+0	6.236000E-1	7.940000E+2	1.119398E+2
2.486050E-4	-9.955000E-6	2.270000E+0	6.236000E-1	1.000000E+3	1.119488E+2
2.482250E-4	-1.211000E-5	2.760000E+0	6.237000E-1	1.260000E+3	1.119501E+2
2.475400E-4	-1.490250E-5	3.480000E+0	6.237000E-1	1.580000E+3	1.119539E+2
2.469175E-4	-1.835750E-5	4.370000E+0	6.237000E-1	1.990000E+3	1.119466E+2
2.444550E-4	-2.271500E-5	5.280000E+0	6.237000E-1	2.510000E+3	1.119435E+2
2.463275E-4	-2.933750E-5	6.740000E+0	6.237000E-1	3.160000E+3	1.119539E+2
2.467300E-4	-3.500750E-5	8.210000E+0	6.236000E-1	3.980000E+3	1.119454E+2
2.483625E-4	-4.448000E-5	1.016000E+1	6.235000E-1	5.010000E+3	1.119540E+2
2.484550E-4	-5.728250E-5	1.298000E+1	6.234000E-1	6.310000E+3	1.119384E+2
2.463875E-4	-7.682000E-5	1.741000E+1	6.232000E-1	7.940000E+3	1.119386E+2
2.371100E-4	-9.787250E-5	2.252000E+1	6.229900E-1	1.000000E+4	1.119447E+2
2.185250E-4	-1.174925E-4	2.814000E+1	6.226000E-1	1.260000E+4	1.119428E+2
2.203325E-4	-1.421225E-4	3.281000E+1	6.220000E-1	1.580000E+4	1.119497E+2
2.074025E-4	-1.643850E-4	3.836000E+1	6.213000E-1	1.990000E+4	1.119449E+2
2.089825E-4	-1.751950E-4	4.005000E+1	6.209000E-1	2.200000E+4	1.119464E+2
					
Tsp[K]  	Tc[K]   	Ts[K]    	Rs[om]  	Po[mW]    	 Io[mA]
115.0000	115.0120	117.1953	122.9180	  3.0729	  5.0000
					
U3x[V]  	U3y[V]  	Phase[deg]	|U1|[V]  	F[Hz]    	Ts[K]  
2.582150E-4	-1.285000E-6	3.000000E-1	6.165550E-1	6.310000E+0	1.171955E+2
2.553975E-4	-2.035000E-6	4.400000E-1	6.221750E-1	7.940000E+0	1.171897E+2
2.557325E-4	-7.940000E-6	1.880000E+0	6.254450E-1	1.000000E+1	1.171854E+2
2.494875E-4	-3.660000E-6	1.600000E-1	6.281500E-1	1.260000E+1	1.171962E+2
2.516275E-4	-4.347500E-6	-6.900000E-1	6.298650E-1	1.580000E+1	1.171984E+2
2.553925E-4	-4.190000E-6	1.880000E+0	6.304000E-1	1.990000E+1	1.171934E+2
2.497850E-4	-2.792500E-6	5.800000E-1	6.305900E-1	2.510000E+1	1.171892E+2
2.495650E-4	-2.760000E-6	6.000000E-1	6.306850E-1	3.160000E+1	1.171881E+2
2.490750E-4	-2.607500E-6	6.300000E-1	6.307000E-1	3.980000E+1	1.171936E+2
2.415900E-4	-5.597500E-6	-6.480000E+0	6.308950E-1	5.010000E+1	1.171940E+2
2.484300E-4	-2.652500E-6	6.900000E-1	6.307250E-1	6.310000E+1	1.171838E+2
2.479200E-4	-2.872500E-6	6.800000E-1	6.307100E-1	7.940000E+1	1.171857E+2
2.472900E-4	-3.042500E-6	6.700000E-1	6.307950E-1	1.000000E+2	1.171887E+2
2.473950E-4	-2.992500E-6	6.400000E-1	6.307950E-1	1.260000E+2	1.171867E+2
2.470775E-4	-3.080000E-6	7.000000E-1	6.308000E-1	1.580000E+2	1.171847E+2
2.468250E-4	-3.482500E-6	7.800000E-1	6.308000E-1	1.990000E+2	1.171895E+2
2.465375E-4	-3.782500E-6	8.300000E-1	6.308000E-1	2.510000E+2	1.171922E+2
2.464275E-4	-4.270000E-6	1.050000E+0	6.308950E-1	3.160000E+2	1.171946E+2
2.461800E-4	-4.982500E-6	1.190000E+0	6.309000E-1	3.980000E+2	1.171854E+2
2.460975E-4	-5.907500E-6	1.400000E+0	6.309900E-1	5.010000E+2	1.171923E+2
2.460125E-4	-7.045000E-6	1.590000E+0	6.310000E-1	6.310000E+2	1.171864E+2
2.455600E-4	-8.357500E-6	1.940000E+0	6.311000E-1	7.940000E+2	1.171916E+2
2.452150E-4	-1.001500E-5	2.290000E+0	6.311000E-1	1.000000E+3	1.171936E+2
2.449825E-4	-1.212500E-5	2.800000E+0	6.312000E-1	1.260000E+3	1.171886E+2
2.443750E-4	-1.492750E-5	3.450000E+0	6.313000E-1	1.580000E+3	1.171834E+2
2.433100E-4	-1.838500E-5	4.320000E+0	6.312200E-1	1.990000E+3	1.171886E+2
2.410800E-4	-2.272500E-5	5.520000E+0	6.313000E-1	2.510000E+3	1.171955E+2
2.427750E-4	-2.875250E-5	6.750000E+0	6.313000E-1	3.160000E+3	1.171920E+2
2.435250E-4	-3.459250E-5	8.130000E+0	6.312000E-1	3.980000E+3	1.171892E+2
2.451925E-4	-4.405000E-5	1.022000E+1	6.312000E-1	5.010000E+3	1.171893E+2
2.452800E-4	-5.689250E-5	1.299000E+1	6.311000E-1	6.310000E+3	1.171862E+2
2.430250E-4	-7.606750E-5	1.735000E+1	6.310000E-1	7.940000E+3	1.171837E+2
2.382850E-4	-9.691750E-5	2.219000E+1	6.308050E-1	1.000000E+4	1.171897E+2
2.148400E-4	-1.152300E-4	2.823000E+1	6.304000E-1	1.260000E+4	1.171811E+2
2.173000E-4	-1.401075E-4	3.279000E+1	6.299000E-1	1.580000E+4	1.171844E+2
2.041725E-4	-1.608350E-4	3.828000E+1	6.292000E-1	1.990000E+4	1.171842E+2
1.983725E-4	-1.702400E-4	4.062000E+1	6.288000E-1	2.200000E+4	1.171842E+2
					
Tsp[K]  	Tc[K]   	Ts[K]    	Rs[om]  	Po[mW]    	 Io[mA]
120.0000	120.0085	122.3041	124.5940	  3.1149	  5.0000
					
U3x[V]  	U3y[V]  	Phase[deg]	|U1|[V]  	F[Hz]    	Ts[K]  
2.554350E-4	-1.642500E-6	4.000000E-1	6.245000E-1	6.310000E+0	1.223105E+2
2.527775E-4	-2.262500E-6	5.500000E-1	6.299700E-1	7.940000E+0	1.223082E+2
2.542375E-4	2.695000E-6	-5.300000E-1	6.332050E-1	1.000000E+1	1.223097E+2
2.500150E-4	-2.235000E-6	4.400000E-1	6.363750E-1	1.260000E+1	1.223039E+2
2.508775E-4	-7.800000E-7	-2.110000E+0	6.374000E-1	1.580000E+1	1.223033E+2
2.540000E-4	-9.400000E-7	2.000000E-2	6.382000E-1	1.990000E+1	1.223035E+2
2.479775E-4	-3.415000E-6	7.500000E-1	6.383550E-1	2.510000E+1	1.223134E+2
2.474425E-4	-3.105000E-6	6.000000E-1	6.385000E-1	3.160000E+1	1.223029E+2
2.472225E-4	-3.010000E-6	7.200000E-1	6.385550E-1	3.980000E+1	1.223028E+2
2.490210E-4	-1.082600E-5	2.246000E+1	6.379550E-1	5.010000E+1	1.223036E+2
2.462600E-4	-2.872500E-6	6.700000E-1	6.384700E-1	6.310000E+1	1.222999E+2
2.458325E-4	-2.917500E-6	6.600000E-1	6.386450E-1	7.940000E+1	1.223079E+2
2.451850E-4	-2.920000E-6	6.700000E-1	6.386900E-1	1.000000E+2	1.222966E+2
2.451000E-4	-3.025000E-6	7.000000E-1	6.386800E-1	1.260000E+2	1.222988E+2
2.448125E-4	-3.332500E-6	7.500000E-1	6.387000E-1	1.580000E+2	1.222995E+2
2.445550E-4	-3.540000E-6	8.200000E-1	6.387000E-1	1.990000E+2	1.222996E+2
2.444175E-4	-3.867500E-6	9.600000E-1	6.387750E-1	2.510000E+2	1.222992E+2
2.442250E-4	-4.525000E-6	1.090000E+0	6.388000E-1	3.160000E+2	1.222950E+2
2.439275E-4	-5.147500E-6	1.230000E+0	6.388000E-1	3.980000E+2	1.222964E+2
2.438075E-4	-6.055000E-6	1.440000E+0	6.388950E-1	5.010000E+2	1.223070E+2
2.435500E-4	-7.147500E-6	1.690000E+0	6.390000E-1	6.310000E+2	1.223035E+2
2.432000E-4	-8.480000E-6	2.000000E+0	6.390000E-1	7.940000E+2	1.223010E+2
2.429950E-4	-1.042000E-5	2.600000E+0	6.390400E-1	1.000000E+3	1.223047E+2
2.424525E-4	-1.231500E-5	2.980000E+0	6.391000E-1	1.260000E+3	1.223013E+2
2.418400E-4	-1.492000E-5	3.600000E+0	6.392000E-1	1.580000E+3	1.222971E+2
2.408050E-4	-1.851000E-5	4.280000E+0	6.392000E-1	1.990000E+3	1.223044E+2
2.386225E-4	-2.270000E-5	5.420000E+0	6.392000E-1	2.510000E+3	1.223036E+2
2.401975E-4	-2.843250E-5	6.950000E+0	6.392000E-1	3.160000E+3	1.223023E+2
2.409125E-4	-3.415000E-5	8.280000E+0	6.391950E-1	3.980000E+3	1.223035E+2
2.423550E-4	-4.358000E-5	1.007000E+1	6.392000E-1	5.010000E+3	1.223000E+2
2.425025E-4	-5.630750E-5	1.310000E+1	6.391000E-1	6.310000E+3	1.223051E+2
2.406200E-4	-7.548500E-5	1.741000E+1	6.389000E-1	7.940000E+3	1.223050E+2
2.298500E-4	-9.707000E-5	2.288000E+1	6.387000E-1	1.000000E+4	1.223054E+2
2.277400E-4	-1.176200E-4	2.733000E+1	6.384000E-1	1.260000E+4	1.223073E+2
2.150900E-4	-1.378625E-4	3.259000E+1	6.379000E-1	1.580000E+4	1.222983E+2
2.019750E-4	-1.583500E-4	3.808000E+1	6.372000E-1	1.990000E+4	1.223047E+2
1.959650E-4	-1.686325E-4	4.090000E+1	6.368000E-1	2.200000E+4	1.223062E+2
					
Tsp[K]  	Tc[K]   	Ts[K]    	Rs[om]  	Po[mW]    	 Io[mA]
125.0000	125.0204	127.4465	126.2530	  3.1563	  5.0000
					
U3x[V]  	U3y[V]  	Phase[deg]	|U1|[V]  	F[Hz]    	Ts[K]  
2.530700E-4	-2.197500E-6	6.100000E-1	6.326750E-1	6.310000E+0	1.274567E+2
2.515400E-4	-1.995000E-6	5.200000E-1	6.377950E-1	7.940000E+0	1.274463E+2
2.466050E-4	-7.232500E-6	1.990000E+0	6.409650E-1	1.000000E+1	1.274472E+2
2.492000E-4	-6.325000E-7	1.000000E-1	6.444450E-1	1.260000E+1	1.274442E+2
2.477550E-4	-2.610000E-6	-2.000000E-1	6.455500E-1	1.580000E+1	1.274438E+2
2.475500E-4	-3.385000E-6	1.520000E+0	6.460500E-1	1.990000E+1	1.274437E+2
2.462025E-4	-3.582500E-6	9.200000E-1	6.462000E-1	2.510000E+1	1.274393E+2
2.455050E-4	-3.107500E-6	3.700000E-1	6.462650E-1	3.160000E+1	1.274460E+2
2.450350E-4	-3.212500E-6	7.700000E-1	6.462100E-1	3.980000E+1	1.274457E+2
2.586375E-4	2.205000E-6	7.790000E+0	6.466400E-1	5.010000E+1	1.274482E+2
2.441950E-4	-3.075000E-6	8.200000E-1	6.462400E-1	6.310000E+1	1.274392E+2
2.438400E-4	-2.902500E-6	7.800000E-1	6.462800E-1	7.940000E+1	1.274489E+2
2.434775E-4	-2.985000E-6	7.600000E-1	6.463100E-1	1.000000E+2	1.274401E+2
2.429750E-4	-3.205000E-6	6.900000E-1	6.462900E-1	1.260000E+2	1.274472E+2
2.429125E-4	-3.462500E-6	8.000000E-1	6.463000E-1	1.580000E+2	1.274545E+2
2.426000E-4	-3.530000E-6	8.600000E-1	6.463000E-1	1.990000E+2	1.274438E+2
2.423125E-4	-4.190000E-6	9.900000E-1	6.463000E-1	2.510000E+2	1.274474E+2
2.419100E-4	-4.650000E-6	1.060000E+0	6.463600E-1	3.160000E+2	1.274446E+2
2.418350E-4	-5.302500E-6	1.210000E+0	6.464000E-1	3.980000E+2	1.274429E+2
2.415250E-4	-6.202500E-6	1.370000E+0	6.464500E-1	5.010000E+2	1.274413E+2
2.412275E-4	-7.382500E-6	1.810000E+0	6.465000E-1	6.310000E+2	1.274424E+2
2.409200E-4	-8.682500E-6	2.100000E+0	6.466000E-1	7.940000E+2	1.274455E+2
2.403900E-4	-1.039500E-5	2.460000E+0	6.466000E-1	1.000000E+3	1.274436E+2
2.401075E-4	-1.242500E-5	2.900000E+0	6.466950E-1	1.260000E+3	1.274424E+2
2.394200E-4	-1.516750E-5	3.600000E+0	6.467000E-1	1.580000E+3	1.274488E+2
2.382850E-4	-1.867000E-5	4.410000E+0	6.467150E-1	1.990000E+3	1.274455E+2
2.361250E-4	-2.282750E-5	5.480000E+0	6.468000E-1	2.510000E+3	1.274439E+2
2.377500E-4	-2.865000E-5	6.930000E+0	6.468000E-1	3.160000E+3	1.274462E+2
2.385525E-4	-3.373750E-5	7.980000E+0	6.467000E-1	3.980000E+3	1.274484E+2
2.401000E-4	-4.316250E-5	1.010000E+1	6.467000E-1	5.010000E+3	1.274478E+2
2.400625E-4	-5.614250E-5	1.313000E+1	6.465950E-1	6.310000E+3	1.274503E+2
2.380625E-4	-7.497500E-5	1.737000E+1	6.464000E-1	7.940000E+3	1.274479E+2
2.338275E-4	-9.549250E-5	2.228000E+1	6.462950E-1	1.000000E+4	1.274410E+2
2.255475E-4	-1.160300E-4	2.708000E+1	6.459000E-1	1.260000E+4	1.274428E+2
2.131800E-4	-1.381425E-4	3.290000E+1	6.454000E-1	1.580000E+4	1.274414E+2
2.004250E-4	-1.562950E-4	3.790000E+1	6.447000E-1	1.990000E+4	1.274483E+2
1.981000E-4	-1.660100E-4	3.991000E+1	6.443000E-1	2.200000E+4	1.274421E+2
					
Tsp[K]  	Tc[K]   	Ts[K]    	Rs[om]  	Po[mW]    	 Io[mA]
130.0000	130.0167	132.5594	127.8230	  3.1956	  5.0000
					
U3x[V]  	U3y[V]  	Phase[deg]	|U1|[V]  	F[Hz]    	Ts[K]  
2.513375E-4	-2.290000E-6	5.600000E-1	6.404700E-1	6.310000E+0	1.325576E+2
2.497575E-4	-2.785000E-6	6.600000E-1	6.453100E-1	7.940000E+0	1.325609E+2
2.515825E-4	8.575000E-7	-5.000000E-1	6.485600E-1	1.000000E+1	1.325591E+2
2.470675E-4	-3.090000E-6	3.900000E-1	6.506700E-1	1.260000E+1	1.325651E+2
2.467900E-4	-4.022500E-6	-1.040000E+0	6.524400E-1	1.580000E+1	1.325545E+2
2.446900E-4	-3.447500E-6	4.600000E-1	6.532000E-1	1.990000E+1	1.325555E+2
2.447300E-4	-2.382500E-6	1.050000E+0	6.534950E-1	2.510000E+1	1.325564E+2
2.439775E-4	-3.175000E-6	8.000000E-1	6.536000E-1	3.160000E+1	1.325538E+2
2.434450E-4	-3.255000E-6	8.600000E-1	6.536050E-1	3.980000E+1	1.325591E+2
2.360080E-4	-1.561000E-6	-1.325000E+1	6.538400E-1	5.010000E+1	1.325463E+2
2.427800E-4	-2.872500E-6	7.600000E-1	6.535800E-1	6.310000E+1	1.325478E+2
2.419775E-4	-3.080000E-6	6.700000E-1	6.535950E-1	7.940000E+1	1.325447E+2
2.419225E-4	-2.965000E-6	5.500000E-1	6.535750E-1	1.000000E+2	1.325564E+2
2.414300E-4	-3.307500E-6	7.500000E-1	6.536000E-1	1.260000E+2	1.325516E+2
2.411075E-4	-3.550000E-6	8.500000E-1	6.536000E-1	1.580000E+2	1.325498E+2
2.408050E-4	-3.720000E-6	9.000000E-1	6.536450E-1	1.990000E+2	1.325492E+2
2.405325E-4	-4.197500E-6	9.900000E-1	6.537000E-1	2.510000E+2	1.325580E+2
2.402000E-4	-4.835000E-6	1.160000E+0	6.537000E-1	3.160000E+2	1.325582E+2
2.398750E-4	-5.555000E-6	1.300000E+0	6.538000E-1	3.980000E+2	1.325478E+2
2.395325E-4	-6.367500E-6	1.510000E+0	6.538000E-1	5.010000E+2	1.325576E+2
2.394350E-4	-7.535000E-6	1.800000E+0	6.539000E-1	6.310000E+2	1.325548E+2
2.390425E-4	-8.822500E-6	2.100000E+0	6.539550E-1	7.940000E+2	1.325506E+2
2.387125E-4	-1.055250E-5	2.430000E+0	6.540000E-1	1.000000E+3	1.325485E+2
2.381550E-4	-1.263750E-5	3.100000E+0	6.540100E-1	1.260000E+3	1.325527E+2
2.374500E-4	-1.539250E-5	3.740000E+0	6.541000E-1	1.580000E+3	1.325491E+2
2.361475E-4	-1.890000E-5	4.620000E+0	6.541000E-1	1.990000E+3	1.325542E+2
2.339950E-4	-2.316000E-5	5.610000E+0	6.541900E-1	2.510000E+3	1.325479E+2
2.356425E-4	-2.845750E-5	6.780000E+0	6.541950E-1	3.160000E+3	1.325497E+2
2.363025E-4	-3.341750E-5	8.120000E+0	6.541000E-1	3.980000E+3	1.325525E+2
2.380450E-4	-4.326250E-5	1.022000E+1	6.541000E-1	5.010000E+3	1.325541E+2
2.382450E-4	-5.601500E-5	1.317000E+1	6.540000E-1	6.310000E+3	1.325547E+2
2.357925E-4	-7.487250E-5	1.771000E+1	6.538000E-1	7.940000E+3	1.325419E+2
2.282900E-4	-9.763000E-5	2.316000E+1	6.536700E-1	1.000000E+4	1.325545E+2
2.223650E-4	-1.156075E-4	2.746000E+1	6.533000E-1	1.260000E+4	1.325475E+2
2.100225E-4	-1.353825E-4	3.282000E+1	6.528000E-1	1.580000E+4	1.325569E+2
1.987975E-4	-1.543025E-4	3.788000E+1	6.521000E-1	1.990000E+4	1.325558E+2
1.388500E-4	-5.837500E-5	2.270000E+1	6.517000E-1	2.200000E+4	1.325535E+2
					
Tsp[K]  	Tc[K]   	Ts[K]    	Rs[om]  	Po[mW]    	 Io[mA]
135.0000	135.0078	137.6442	129.4050	  3.2351	  5.0000
					
U3x[V]  	U3y[V]  	Phase[deg]	|U1|[V]  	F[Hz]    	Ts[K]  
2.497500E-4	-2.445000E-6	5.500000E-1	6.481400E-1	6.310000E+0	1.376462E+2
2.476300E-4	-3.082500E-6	7.500000E-1	6.529500E-1	7.940000E+0	1.376434E+2
2.525600E-4	-5.467500E-6	1.580000E+0	6.558500E-1	1.000000E+1	1.376487E+2
2.452900E-4	-3.702500E-6	8.500000E-1	6.585700E-1	1.260000E+1	1.376436E+2
2.444825E-4	-4.025000E-6	1.770000E+0	6.598000E-1	1.580000E+1	1.376477E+2
2.444875E-4	-3.250000E-6	8.500000E-1	6.604750E-1	1.990000E+1	1.376386E+2
2.429025E-4	-2.997500E-6	7.500000E-1	6.608000E-1	2.510000E+1	1.376377E+2
2.426475E-4	-3.222500E-6	8.900000E-1	6.608500E-1	3.160000E+1	1.376526E+2
2.415900E-4	-3.815000E-6	8.500000E-1	6.608800E-1	3.980000E+1	1.376449E+2
2.394150E-4	-1.483750E-5	-9.840000E+0	6.612550E-1	5.010000E+1	1.376421E+2
2.412575E-4	-3.257500E-6	8.400000E-1	6.609600E-1	6.310000E+1	1.376543E+2
2.407000E-4	-3.215000E-6	7.900000E-1	6.609000E-1	7.940000E+1	1.376465E+2
2.408250E-4	-3.575000E-6	8.100000E-1	6.609600E-1	1.000000E+2	1.376471E+2
2.400375E-4	-3.332500E-6	8.300000E-1	6.609800E-1	1.260000E+2	1.376439E+2
2.398625E-4	-3.730000E-6	9.300000E-1	6.609800E-1	1.580000E+2	1.376386E+2
2.395525E-4	-3.852500E-6	9.600000E-1	6.610000E-1	1.990000E+2	1.376426E+2
2.392600E-4	-4.317500E-6	1.050000E+0	6.610000E-1	2.510000E+2	1.376397E+2
2.389900E-4	-4.805000E-6	1.170000E+0	6.610800E-1	3.160000E+2	1.376385E+2
2.386850E-4	-5.665000E-6	1.350000E+0	6.611000E-1	3.980000E+2	1.376376E+2
2.383000E-4	-6.562500E-6	1.540000E+0	6.611550E-1	5.010000E+2	1.376426E+2
2.379700E-4	-7.772500E-6	1.870000E+0	6.612000E-1	6.310000E+2	1.376439E+2
2.375475E-4	-9.105000E-6	2.160000E+0	6.612900E-1	7.940000E+2	1.376428E+2
2.374700E-4	-1.078750E-5	2.480000E+0	6.613000E-1	1.000000E+3	1.376446E+2
2.365275E-4	-1.286000E-5	3.160000E+0	6.613750E-1	1.260000E+3	1.376401E+2
2.358900E-4	-1.566750E-5	3.810000E+0	6.614000E-1	1.580000E+3	1.376387E+2
2.345425E-4	-1.925750E-5	4.590000E+0	6.614000E-1	1.990000E+3	1.376404E+2
2.322475E-4	-2.330250E-5	5.800000E+0	6.615000E-1	2.510000E+3	1.376376E+2
2.339250E-4	-2.841750E-5	6.860000E+0	6.614200E-1	3.160000E+3	1.376380E+2
2.348150E-4	-3.374500E-5	8.140000E+0	6.614000E-1	3.980000E+3	1.376383E+2
2.358125E-4	-4.305250E-5	1.024000E+1	6.613000E-1	5.010000E+3	1.376408E+2
2.364825E-4	-5.617500E-5	1.336000E+1	6.612000E-1	6.310000E+3	1.376450E+2
2.341300E-4	-7.527500E-5	1.786000E+1	6.611000E-1	7.940000E+3	1.376387E+2
2.240275E-4	-9.527250E-5	2.324000E+1	6.608500E-1	1.000000E+4	1.376331E+2
2.205250E-4	-1.162600E-4	2.779000E+1	6.605000E-1	1.260000E+4	1.376348E+2
2.071875E-4	-1.358025E-4	3.326000E+1	6.600000E-1	1.580000E+4	1.376326E+2
1.970500E-4	-1.544725E-4	3.808000E+1	6.593000E-1	1.990000E+4	1.376434E+2
1.924450E-4	-1.596150E-4	3.982000E+1	6.589000E-1	2.200000E+4	1.376412E+2
					
Tsp[K]  	Tc[K]   	Ts[K]    	Rs[om]  	Po[mW]    	 Io[mA]
140.0000	140.0094	142.7437	130.9460	  3.2736	  5.0000
					
U3x[V]  	U3y[V]  	Phase[deg]	|U1|[V]  	F[Hz]    	Ts[K]  
2.486000E-4	-2.660000E-6	5.900000E-1	6.557250E-1	6.310000E+0	1.427447E+2
2.468875E-4	-3.525000E-6	8.000000E-1	6.602000E-1	7.940000E+0	1.427389E+2
2.399300E-4	-4.507500E-6	8.800000E-1	6.630550E-1	1.000000E+1	1.427404E+2
2.441600E-4	-3.625000E-6	8.200000E-1	6.647500E-1	1.260000E+1	1.427352E+2
2.438300E-4	-4.310000E-6	1.450000E+0	6.669000E-1	1.580000E+1	1.427376E+2
2.429975E-4	-3.420000E-6	7.800000E-1	6.676700E-1	1.990000E+1	1.427302E+2
2.428825E-4	-3.927500E-6	1.310000E+0	6.679650E-1	2.510000E+1	1.427344E+2
2.414450E-4	-3.832500E-6	9.700000E-1	6.681000E-1	3.160000E+1	1.427398E+2
2.408750E-4	-3.665000E-6	8.400000E-1	6.682000E-1	3.980000E+1	1.427321E+2
2.369975E-4	7.440000E-6	-6.490000E+0	6.679800E-1	5.010000E+1	1.427406E+2
2.402225E-4	-3.365000E-6	7.900000E-1	6.682450E-1	6.310000E+1	1.427376E+2
2.398775E-4	-3.465000E-6	7.600000E-1	6.682450E-1	7.940000E+1	1.427369E+2
2.394375E-4	-4.070000E-6	1.090000E+0	6.682000E-1	1.000000E+2	1.427342E+2
2.390175E-4	-3.610000E-6	8.100000E-1	6.682600E-1	1.260000E+2	1.427243E+2
2.387475E-4	-3.842500E-6	9.400000E-1	6.682750E-1	1.580000E+2	1.427396E+2
2.384750E-4	-4.035000E-6	1.010000E+0	6.683000E-1	1.990000E+2	1.427471E+2
2.380775E-4	-4.670000E-6	1.140000E+0	6.683050E-1	2.510000E+2	1.427338E+2
2.378100E-4	-5.142500E-6	1.270000E+0	6.683650E-1	3.160000E+2	1.427367E+2
2.374150E-4	-5.942500E-6	1.400000E+0	6.684000E-1	3.980000E+2	1.427383E+2
2.370925E-4	-6.705000E-6	1.540000E+0	6.684450E-1	5.010000E+2	1.427291E+2
2.367375E-4	-7.795000E-6	1.890000E+0	6.685050E-1	6.310000E+2	1.427394E+2
2.363075E-4	-9.327500E-6	2.320000E+0	6.686000E-1	7.940000E+2	1.427370E+2
2.356250E-4	-1.107750E-5	2.730000E+0	6.686000E-1	1.000000E+3	1.427289E+2
2.350975E-4	-1.309000E-5	3.240000E+0	6.687000E-1	1.260000E+3	1.427396E+2
2.344275E-4	-1.585250E-5	3.840000E+0	6.688000E-1	1.580000E+3	1.427343E+2
2.332775E-4	-1.939500E-5	4.740000E+0	6.688000E-1	1.990000E+3	1.427370E+2
2.306175E-4	-2.366000E-5	5.830000E+0	6.688000E-1	2.510000E+3	1.427402E+2
2.321250E-4	-2.855750E-5	7.070000E+0	6.688000E-1	3.160000E+3	1.427394E+2
2.331850E-4	-3.379250E-5	8.320000E+0	6.687000E-1	3.980000E+3	1.427354E+2
2.346825E-4	-4.350000E-5	1.055000E+1	6.687000E-1	5.010000E+3	1.427503E+2
2.344900E-4	-5.627000E-5	1.348000E+1	6.686000E-1	6.310000E+3	1.427366E+2
2.325850E-4	-7.505750E-5	1.794000E+1	6.684000E-1	7.940000E+3	1.427349E+2
2.258725E-4	-9.902000E-5	2.371000E+1	6.682450E-1	1.000000E+4	1.427336E+2
2.189325E-4	-1.151875E-4	2.768000E+1	6.678850E-1	1.260000E+4	1.427337E+2
2.056250E-4	-1.338525E-4	3.306000E+1	6.674000E-1	1.580000E+4	1.427257E+2
1.937250E-4	-1.519100E-4	3.806000E+1	6.666050E-1	1.990000E+4	1.427376E+2
1.879000E-4	-1.617225E-4	4.077000E+1	6.662300E-1	2.200000E+4	1.427340E+2
					
Tsp[K]  	Tc[K]   	Ts[K]    	Rs[om]  	Po[mW]    	 Io[mA]
145.0000	145.0146	147.7912	132.4780	  3.3119	  5.0000
					
U3x[V]  	U3y[V]  	Phase[deg]	|U1|[V]  	F[Hz]    	Ts[K]  
2.477775E-4	-2.925000E-6	6.900000E-1	6.634100E-1	6.310000E+0	1.478006E+2
2.460975E-4	-3.412500E-6	7.900000E-1	6.680000E-1	7.940000E+0	1.477918E+2
2.465000E-4	-9.365000E-6	2.210000E+0	6.706150E-1	1.000000E+1	1.478030E+2
2.441825E-4	-3.640000E-6	1.440000E+0	6.725400E-1	1.260000E+1	1.477876E+2
2.434300E-4	-4.407500E-6	1.860000E+0	6.743600E-1	1.580000E+1	1.477977E+2
2.424800E-4	-3.455000E-6	7.900000E-1	6.750000E-1	1.990000E+1	1.477961E+2
2.419125E-4	-4.047500E-6	7.500000E-1	6.753650E-1	2.510000E+1	1.477885E+2
2.407975E-4	-3.955000E-6	9.000000E-1	6.754800E-1	3.160000E+1	1.477951E+2
2.405975E-4	-3.675000E-6	8.700000E-1	6.754600E-1	3.980000E+1	1.477879E+2
2.323550E-4	-1.264500E-5	-1.802000E+1	6.754850E-1	5.010000E+1	1.477903E+2
2.393025E-4	-3.635000E-6	8.200000E-1	6.755150E-1	6.310000E+1	1.477943E+2
2.391000E-4	-3.547500E-6	6.700000E-1	6.754950E-1	7.940000E+1	1.477938E+2
2.386775E-4	-3.605000E-6	1.040000E+0	6.754200E-1	1.000000E+2	1.477899E+2
2.381500E-4	-3.760000E-6	8.800000E-1	6.755000E-1	1.260000E+2	1.477903E+2
2.379925E-4	-3.985000E-6	9.500000E-1	6.755000E-1	1.580000E+2	1.477908E+2
2.376750E-4	-4.340000E-6	1.030000E+0	6.755700E-1	1.990000E+2	1.477892E+2
2.373025E-4	-4.910000E-6	1.160000E+0	6.755900E-1	2.510000E+2	1.477900E+2
2.370150E-4	-5.380000E-6	1.310000E+0	6.756000E-1	3.160000E+2	1.477942E+2
2.365900E-4	-6.272500E-6	1.540000E+0	6.756000E-1	3.980000E+2	1.477911E+2
2.362000E-4	-7.045000E-6	1.800000E+0	6.757000E-1	5.010000E+2	1.477968E+2
2.358075E-4	-8.087500E-6	1.920000E+0	6.758000E-1	6.310000E+2	1.477907E+2
2.353500E-4	-9.567500E-6	2.280000E+0	6.758000E-1	7.940000E+2	1.477870E+2
2.349650E-4	-1.110500E-5	2.820000E+0	6.759000E-1	1.000000E+3	1.477882E+2
2.342525E-4	-1.337250E-5	3.230000E+0	6.759000E-1	1.260000E+3	1.477971E+2
2.335375E-4	-1.598000E-5	3.880000E+0	6.760000E-1	1.580000E+3	1.477942E+2
2.321900E-4	-1.981750E-5	4.960000E+0	6.760000E-1	1.990000E+3	1.477924E+2
2.296375E-4	-2.408500E-5	5.940000E+0	6.760100E-1	2.510000E+3	1.477938E+2
2.311300E-4	-2.867250E-5	6.920000E+0	6.760000E-1	3.160000E+3	1.477936E+2
2.316025E-4	-3.391250E-5	8.430000E+0	6.759000E-1	3.980000E+3	1.477919E+2
2.334800E-4	-4.336750E-5	1.035000E+1	6.759000E-1	5.010000E+3	1.477896E+2
2.335550E-4	-5.648000E-5	1.370000E+1	6.758000E-1	6.310000E+3	1.477906E+2
2.310375E-4	-7.546750E-5	1.812000E+1	6.757000E-1	7.940000E+3	1.477936E+2
2.201700E-4	-9.653000E-5	2.364000E+1	6.754400E-1	1.000000E+4	1.477916E+2
2.169725E-4	-1.152700E-4	2.776000E+1	6.751000E-1	1.260000E+4	1.477936E+2
2.039325E-4	-1.352100E-4	3.356000E+1	6.746000E-1	1.580000E+4	1.477785E+2
1.926875E-4	-1.513800E-4	3.816000E+1	6.739000E-1	1.990000E+4	1.477843E+2
1.889150E-4	-1.575550E-4	3.979000E+1	6.734150E-1	2.200000E+4	1.477913E+2
					
Tsp[K]  	Tc[K]   	Ts[K]    	Rs[om]  	Po[mW]    	 Io[mA]
150.0000	150.0137	152.8607	133.9810	  3.3495	  5.0000
					
U3x[V]  	U3y[V]  	Phase[deg]	|U1|[V]  	F[Hz]    	Ts[K]  
2.468875E-4	-3.185000E-6	7.100000E-1	6.708600E-1	6.310000E+0	1.528581E+2
2.457700E-4	-3.662500E-6	8.800000E-1	6.749900E-1	7.940000E+0	1.528585E+2
2.430975E-4	1.200000E-6	-2.900000E-1	6.777000E-1	1.000000E+1	1.528501E+2
2.443725E-4	-3.692500E-6	3.400000E-1	6.804300E-1	1.260000E+1	1.528530E+2
2.427025E-4	-3.582500E-6	1.590000E+0	6.817750E-1	1.580000E+1	1.528616E+2
2.418350E-4	-4.307500E-6	-1.400000E-1	6.823000E-1	1.990000E+1	1.528655E+2
2.409400E-4	-4.655000E-6	7.300000E-1	6.824300E-1	2.510000E+1	1.528600E+2
2.407550E-4	-4.175000E-6	1.210000E+0	6.825150E-1	3.160000E+1	1.528664E+2
2.400100E-4	-3.997500E-6	9.300000E-1	6.825850E-1	3.980000E+1	1.528575E+2
2.350220E-4	-1.850000E-6	-1.424000E+1	6.826450E-1	5.010000E+1	1.528674E+2
2.390200E-4	-4.032500E-6	8.700000E-1	6.825850E-1	6.310000E+1	1.528519E+2
2.389275E-4	-3.555000E-6	1.050000E+0	6.825850E-1	7.940000E+1	1.528657E+2
2.382550E-4	-4.002500E-6	1.020000E+0	6.825300E-1	1.000000E+2	1.528606E+2
2.378675E-4	-3.977500E-6	9.000000E-1	6.826000E-1	1.260000E+2	1.528545E+2
2.374125E-4	-4.245000E-6	1.080000E+0	6.826000E-1	1.580000E+2	1.528581E+2
2.370725E-4	-4.522500E-6	1.090000E+0	6.826000E-1	1.990000E+2	1.528615E+2
2.366200E-4	-5.102500E-6	1.220000E+0	6.826150E-1	2.510000E+2	1.528623E+2
2.361775E-4	-5.642500E-6	1.390000E+0	6.826450E-1	3.160000E+2	1.528594E+2
2.357500E-4	-6.445000E-6	1.570000E+0	6.827000E-1	3.980000E+2	1.528571E+2
2.350550E-4	-7.452500E-6	1.950000E+0	6.827000E-1	5.010000E+2	1.528534E+2
2.347775E-4	-8.380000E-6	2.010000E+0	6.827750E-1	6.310000E+2	1.528530E+2
2.343400E-4	-9.740000E-6	2.340000E+0	6.828000E-1	7.940000E+2	1.528607E+2
2.336175E-4	-1.162250E-5	2.770000E+0	6.828700E-1	1.000000E+3	1.528549E+2
2.331750E-4	-1.366250E-5	3.360000E+0	6.829000E-1	1.260000E+3	1.528613E+2
2.323500E-4	-1.622250E-5	3.940000E+0	6.829900E-1	1.580000E+3	1.528524E+2
2.311650E-4	-1.994250E-5	4.950000E+0	6.830000E-1	1.990000E+3	1.528523E+2
2.283475E-4	-2.428750E-5	6.130000E+0	6.830000E-1	2.510000E+3	1.528589E+2
2.299300E-4	-2.899250E-5	7.410000E+0	6.829000E-1	3.160000E+3	1.528611E+2
2.306400E-4	-3.435750E-5	8.450000E+0	6.828000E-1	3.980000E+3	1.528590E+2
2.323350E-4	-4.363750E-5	1.052000E+1	6.828000E-1	5.010000E+3	1.528566E+2
2.320550E-4	-5.702500E-5	1.370000E+1	6.827000E-1	6.310000E+3	1.528553E+2
2.297400E-4	-7.583500E-5	1.831000E+1	6.825000E-1	7.940000E+3	1.528591E+2
2.129000E-4	-1.004625E-4	2.526000E+1	6.823300E-1	1.000000E+4	1.528587E+2
2.149775E-4	-1.158375E-4	2.829000E+1	6.819000E-1	1.260000E+4	1.528618E+2
2.017000E-4	-1.341950E-4	3.369000E+1	6.814000E-1	1.580000E+4	1.528629E+2
1.920200E-4	-1.524000E-4	3.844000E+1	6.806000E-1	1.990000E+4	1.528538E+2
1.871275E-4	-1.613200E-4	4.073000E+1	6.802000E-1	2.200000E+4	1.528554E+2
					
Tsp[K]  	Tc[K]   	Ts[K]    	Rs[om]  	Po[mW]    	 Io[mA]
155.0000	155.0128	157.8698	135.4280	  3.3857	  5.0000
					
U3x[V]  	U3y[V]  	Phase[deg]	|U1|[V]  	F[Hz]    	Ts[K]  
2.466800E-4	-3.820000E-6	8.700000E-1	6.778000E-1	6.310000E+0	1.578805E+2
2.451625E-4	-4.052500E-6	9.300000E-1	6.817800E-1	7.940000E+0	1.578850E+2
2.441725E-4	7.675000E-7	-1.500000E-1	6.844000E-1	1.000000E+1	1.578812E+2
2.435275E-4	-4.705000E-6	1.690000E+0	6.874000E-1	1.260000E+1	1.578684E+2
2.419925E-4	-5.780000E-6	3.800000E-1	6.883500E-1	1.580000E+1	1.578849E+2
2.415650E-4	-4.345000E-6	7.400000E-1	6.887000E-1	1.990000E+1	1.578815E+2
2.407825E-4	-4.335000E-6	8.900000E-1	6.888900E-1	2.510000E+1	1.578798E+2
2.403475E-4	-4.380000E-6	1.050000E+0	6.888650E-1	3.160000E+1	1.578737E+2
2.396100E-4	-4.167500E-6	1.100000E+0	6.888750E-1	3.980000E+1	1.578775E+2
2.453750E-4	8.056000E-6	1.360000E+0	6.891900E-1	5.010000E+1	1.578744E+2
2.391050E-4	-4.060000E-6	1.160000E+0	6.887900E-1	6.310000E+1	1.578782E+2
2.380100E-4	-3.950000E-6	1.060000E+0	6.888000E-1	7.940000E+1	1.578777E+2
2.372625E-4	-4.200000E-6	9.900000E-1	6.888100E-1	1.000000E+2	1.578725E+2
2.370125E-4	-4.202500E-6	1.000000E+0	6.888400E-1	1.260000E+2	1.578769E+2
2.366225E-4	-4.505000E-6	1.080000E+0	6.888750E-1	1.580000E+2	1.578829E+2
2.362850E-4	-4.740000E-6	1.050000E+0	6.888700E-1	1.990000E+2	1.578778E+2
2.358650E-4	-5.435000E-6	1.290000E+0	6.888950E-1	2.510000E+2	1.578700E+2
2.353625E-4	-5.907500E-6	1.410000E+0	6.889000E-1	3.160000E+2	1.578703E+2
2.349150E-4	-6.840000E-6	1.660000E+0	6.889900E-1	3.980000E+2	1.578730E+2
2.343750E-4	-7.570000E-6	1.880000E+0	6.890000E-1	5.010000E+2	1.578710E+2
2.339800E-4	-8.615000E-6	2.060000E+0	6.890900E-1	6.310000E+2	1.578794E+2
2.333750E-4	-1.007250E-5	2.490000E+0	6.891000E-1	7.940000E+2	1.578719E+2
2.329600E-4	-1.195500E-5	2.880000E+0	6.891050E-1	1.000000E+3	1.578746E+2
2.321300E-4	-1.391000E-5	3.420000E+0	6.892000E-1	1.260000E+3	1.578752E+2
2.313300E-4	-1.678000E-5	4.050000E+0	6.892350E-1	1.580000E+3	1.578702E+2
2.297000E-4	-2.037000E-5	5.030000E+0	6.892000E-1	1.990000E+3	1.578765E+2
2.272775E-4	-2.471500E-5	6.170000E+0	6.892000E-1	2.510000E+3	1.578705E+2
2.288675E-4	-2.951250E-5	7.260000E+0	6.892000E-1	3.160000E+3	1.578711E+2
2.294975E-4	-3.487500E-5	8.600000E+0	6.891000E-1	3.980000E+3	1.578711E+2
2.310825E-4	-4.452250E-5	1.084000E+1	6.891000E-1	5.010000E+3	1.578823E+2
2.308000E-4	-5.796000E-5	1.404000E+1	6.889050E-1	6.310000E+3	1.578754E+2
2.278875E-4	-7.697500E-5	1.869000E+1	6.888000E-1	7.940000E+3	1.578685E+2
2.151350E-4	-9.831000E-5	2.471000E+1	6.885450E-1	1.000000E+4	1.578753E+2
2.133075E-4	-1.162900E-4	2.860000E+1	6.881000E-1	1.260000E+4	1.578709E+2
1.995575E-4	-1.348650E-4	3.400000E+1	6.876000E-1	1.580000E+4	1.578719E+2
1.882825E-4	-1.511550E-4	3.867000E+1	6.868000E-1	1.990000E+4	1.578750E+2
1.802400E-4	-1.585325E-4	4.126000E+1	6.864000E-1	2.200000E+4	1.578662E+2
					
Tsp[K]  	Tc[K]   	Ts[K]    	Rs[om]  	Po[mW]    	 Io[mA]
160.0000	160.0136	162.9340	136.8240	  3.4206	  5.0000
					
U3x[V]  	U3y[V]  	Phase[deg]	|U1|[V]  	F[Hz]    	Ts[K]  
2.465575E-4	-3.842500E-6	8.500000E-1	6.845850E-1	6.310000E+0	1.629355E+2
2.451525E-4	-4.832500E-6	1.180000E+0	6.883450E-1	7.940000E+0	1.629239E+2
2.400375E-4	-5.950000E-7	-1.400000E-1	6.910050E-1	1.000000E+1	1.629251E+2
2.450700E-4	-4.267500E-6	1.050000E+0	6.926300E-1	1.260000E+1	1.629353E+2
2.424325E-4	-4.637500E-6	1.250000E+0	6.941100E-1	1.580000E+1	1.629344E+2
2.410200E-4	-4.632500E-6	7.300000E-1	6.949000E-1	1.990000E+1	1.629297E+2
2.407925E-4	-4.477500E-6	1.030000E+0	6.952100E-1	2.510000E+1	1.629320E+2
2.397950E-4	-4.130000E-6	1.080000E+0	6.953000E-1	3.160000E+1	1.629189E+2
2.392025E-4	-4.015000E-6	1.000000E+0	6.953000E-1	3.980000E+1	1.629264E+2
2.339025E-4	3.112500E-6	-4.800000E+0	6.954000E-1	5.010000E+1	1.629346E+2
2.380475E-4	-4.417500E-6	1.040000E+0	6.952900E-1	6.310000E+1	1.629262E+2
2.378225E-4	-4.240000E-6	8.700000E-1	6.953100E-1	7.940000E+1	1.629207E+2
2.370625E-4	-4.242500E-6	1.040000E+0	6.954000E-1	1.000000E+2	1.629227E+2
2.367500E-4	-4.420000E-6	1.070000E+0	6.953000E-1	1.260000E+2	1.629185E+2
2.362950E-4	-4.717500E-6	1.160000E+0	6.953150E-1	1.580000E+2	1.629291E+2
2.358875E-4	-5.015000E-6	1.270000E+0	6.953350E-1	1.990000E+2	1.629203E+2
2.354100E-4	-5.620000E-6	1.330000E+0	6.953950E-1	2.510000E+2	1.629247E+2
2.348325E-4	-6.267500E-6	1.540000E+0	6.954000E-1	3.160000E+2	1.629372E+2
2.343475E-4	-7.037500E-6	1.730000E+0	6.954000E-1	3.980000E+2	1.629325E+2
2.338525E-4	-7.847500E-6	1.890000E+0	6.955000E-1	5.010000E+2	1.629322E+2
2.332750E-4	-9.057500E-6	2.300000E+0	6.955150E-1	6.310000E+2	1.629197E+2
2.326050E-4	-1.033750E-5	2.500000E+0	6.955650E-1	7.940000E+2	1.629293E+2
2.319000E-4	-1.204750E-5	3.110000E+0	6.955900E-1	1.000000E+3	1.629255E+2
2.313575E-4	-1.433750E-5	3.540000E+0	6.956200E-1	1.260000E+3	1.629318E+2
2.304575E-4	-1.713250E-5	4.250000E+0	6.957000E-1	1.580000E+3	1.629221E+2
2.290250E-4	-2.082500E-5	5.170000E+0	6.957000E-1	1.990000E+3	1.629241E+2
2.263650E-4	-2.554000E-5	6.460000E+0	6.957000E-1	2.510000E+3	1.629236E+2
2.278425E-4	-2.966250E-5	7.410000E+0	6.956350E-1	3.160000E+3	1.629249E+2
2.287850E-4	-3.499250E-5	8.660000E+0	6.955000E-1	3.980000E+3	1.629264E+2
2.299300E-4	-4.512250E-5	1.114000E+1	6.955000E-1	5.010000E+3	1.629281E+2
2.295025E-4	-5.876500E-5	1.435000E+1	6.954000E-1	6.310000E+3	1.629221E+2
2.262800E-4	-7.822000E-5	1.910000E+1	6.952000E-1	7.940000E+3	1.629254E+2
2.162600E-4	-1.000925E-4	2.489000E+1	6.949050E-1	1.000000E+4	1.629269E+2
2.112050E-4	-1.167775E-4	2.906000E+1	6.945000E-1	1.260000E+4	1.629240E+2
1.973050E-4	-1.357625E-4	3.449000E+1	6.940000E-1	1.580000E+4	1.629320E+2
1.869525E-4	-1.531450E-4	3.931000E+1	6.931000E-1	1.990000E+4	1.629212E+2
1.837375E-4	-1.592175E-4	4.093000E+1	6.927000E-1	2.200000E+4	1.629178E+2
					
Tsp[K]  	Tc[K]   	Ts[K]    	Rs[om]  	Po[mW]    	 Io[mA]
165.0000	165.0210	167.9077	138.2250	  3.4556	  5.0000
					
U3x[V]  	U3y[V]  	Phase[deg]	|U1|[V]  	F[Hz]    	Ts[K]  
2.463000E-4	-4.532500E-6	1.030000E+0	6.913450E-1	6.310000E+0	1.679196E+2
2.458425E-4	-4.857500E-6	1.270000E+0	6.952650E-1	7.940000E+0	1.679049E+2
2.448575E-4	-9.875000E-7	4.200000E-1	6.976900E-1	1.000000E+1	1.679121E+2
2.435875E-4	-5.050000E-6	9.800000E-1	6.999750E-1	1.260000E+1	1.679122E+2
2.417525E-4	-3.205000E-6	1.210000E+0	7.009400E-1	1.580000E+1	1.679180E+2
2.425850E-4	-8.855000E-6	1.940000E+0	7.015550E-1	1.990000E+1	1.679134E+2
2.393200E-4	-4.695000E-6	1.280000E+0	7.016750E-1	2.510000E+1	1.679211E+2
2.398550E-4	-4.780000E-6	1.020000E+0	7.018000E-1	3.160000E+1	1.679098E+2
2.396125E-4	-4.285000E-6	1.050000E+0	7.018200E-1	3.980000E+1	1.679183E+2
2.393625E-4	-5.730000E-6	-5.250000E+0	7.006450E-1	5.010000E+1	1.679077E+2
2.383575E-4	-4.147500E-6	1.110000E+0	7.017300E-1	6.310000E+1	1.679111E+2
2.372975E-4	-4.382500E-6	9.400000E-1	7.017550E-1	7.940000E+1	1.679104E+2
2.370575E-4	-4.212500E-6	1.030000E+0	7.017100E-1	1.000000E+2	1.679108E+2
2.365200E-4	-4.580000E-6	1.130000E+0	7.018050E-1	1.260000E+2	1.679132E+2
2.360150E-4	-4.950000E-6	1.220000E+0	7.018000E-1	1.580000E+2	1.679076E+2
2.357525E-4	-5.262500E-6	1.350000E+0	7.018450E-1	1.990000E+2	1.679101E+2
2.351825E-4	-5.917500E-6	1.430000E+0	7.018900E-1	2.510000E+2	1.679062E+2
2.344950E-4	-6.507500E-6	1.660000E+0	7.019000E-1	3.160000E+2	1.679204E+2
2.338750E-4	-7.412500E-6	1.820000E+0	7.019000E-1	3.980000E+2	1.679154E+2
2.334500E-4	-8.367500E-6	2.030000E+0	7.019900E-1	5.010000E+2	1.679067E+2
2.326700E-4	-9.287500E-6	2.300000E+0	7.020000E-1	6.310000E+2	1.679135E+2
2.320950E-4	-1.067500E-5	2.560000E+0	7.020700E-1	7.940000E+2	1.679145E+2
2.315050E-4	-1.260500E-5	3.050000E+0	7.021000E-1	1.000000E+3	1.679137E+2
2.306800E-4	-1.465000E-5	3.560000E+0	7.021000E-1	1.260000E+3	1.679062E+2
2.296825E-4	-1.764250E-5	4.430000E+0	7.022000E-1	1.580000E+3	1.679084E+2
2.282675E-4	-2.135500E-5	5.320000E+0	7.022000E-1	1.990000E+3	1.679091E+2
2.254225E-4	-2.587750E-5	6.420000E+0	7.022500E-1	2.510000E+3	1.679077E+2
2.273700E-4	-3.000000E-5	7.450000E+0	7.022000E-1	3.160000E+3	1.679105E+2
2.281150E-4	-3.581000E-5	8.820000E+0	7.021000E-1	3.980000E+3	1.679112E+2
2.295300E-4	-4.571000E-5	1.124000E+1	7.021000E-1	5.010000E+3	1.679055E+2
2.290600E-4	-5.991250E-5	1.444000E+1	7.020000E-1	6.310000E+3	1.679057E+2
2.253225E-4	-7.927250E-5	1.939000E+1	7.018000E-1	7.940000E+3	1.679087E+2
2.093625E-4	-1.032100E-4	2.611000E+1	7.016450E-1	1.000000E+4	1.679138E+2
2.092400E-4	-1.174825E-4	2.929000E+1	7.011200E-1	1.260000E+4	1.679041E+2
1.960300E-4	-1.365050E-4	3.487000E+1	7.006000E-1	1.580000E+4	1.679173E+2
1.860550E-4	-1.532875E-4	3.946000E+1	6.997000E-1	1.990000E+4	1.679148E+2
1.799950E-4	-1.609250E-4	4.190000E+1	6.993000E-1	2.200000E+4	1.679127E+2
					
Tsp[K]  	Tc[K]   	Ts[K]    	Rs[om]  	Po[mW]    	 Io[mA]
170.0000	170.0156	172.9403	139.6520	  3.4913	  5.0000
					
U3x[V]  	U3y[V]  	Phase[deg]	|U1|[V]  	F[Hz]    	Ts[K]  
2.467525E-4	-4.532500E-6	1.070000E+0	6.985000E-1	6.310000E+0	1.729467E+2
2.459950E-4	-4.970000E-6	1.110000E+0	7.023300E-1	7.940000E+0	1.729386E+2
2.403375E-4	-5.052500E-6	2.320000E+0	7.045450E-1	1.000000E+1	1.729349E+2
2.437250E-4	-5.587500E-6	1.590000E+0	7.071850E-1	1.260000E+1	1.729439E+2
2.426175E-4	-4.652500E-6	2.400000E+0	7.079100E-1	1.580000E+1	1.729426E+2
2.414825E-4	-5.095000E-6	1.010000E+0	7.083800E-1	1.990000E+1	1.729282E+2
2.409975E-4	-4.825000E-6	1.360000E+0	7.085550E-1	2.510000E+1	1.729381E+2
2.396325E-4	-4.747500E-6	1.150000E+0	7.086000E-1	3.160000E+1	1.729415E+2
2.394275E-4	-4.237500E-6	1.010000E+0	7.086000E-1	3.980000E+1	1.729352E+2
2.383290E-4	4.933000E-6	-1.496000E+1	7.085550E-1	5.010000E+1	1.729410E+2
2.384100E-4	-4.297500E-6	7.300000E-1	7.086850E-1	6.310000E+1	1.729337E+2
2.375575E-4	-4.475000E-6	1.100000E+0	7.085250E-1	7.940000E+1	1.729325E+2
2.376600E-4	-4.750000E-6	1.250000E+0	7.086450E-1	1.000000E+2	1.729407E+2
2.371550E-4	-4.825000E-6	1.190000E+0	7.086000E-1	1.260000E+2	1.729280E+2
2.365075E-4	-5.257500E-6	1.250000E+0	7.086000E-1	1.580000E+2	1.729363E+2
2.359750E-4	-5.505000E-6	1.290000E+0	7.085900E-1	1.990000E+2	1.729275E+2
2.354500E-4	-6.317500E-6	1.530000E+0	7.085900E-1	2.510000E+2	1.729421E+2
2.344125E-4	-6.745000E-6	1.700000E+0	7.086000E-1	3.160000E+2	1.729384E+2
2.338375E-4	-7.765000E-6	1.910000E+0	7.087000E-1	3.980000E+2	1.729306E+2
2.333550E-4	-8.510000E-6	2.100000E+0	7.087150E-1	5.010000E+2	1.729370E+2
2.326725E-4	-9.587500E-6	2.460000E+0	7.088000E-1	6.310000E+2	1.729362E+2
2.319000E-4	-1.102500E-5	2.650000E+0	7.088250E-1	7.940000E+2	1.729265E+2
2.314725E-4	-1.299250E-5	3.180000E+0	7.088850E-1	1.000000E+3	1.729484E+2
2.304600E-4	-1.504750E-5	3.710000E+0	7.090000E-1	1.260000E+3	1.729373E+2
2.295875E-4	-1.790250E-5	4.430000E+0	7.090250E-1	1.580000E+3	1.729386E+2
2.279100E-4	-2.161250E-5	5.410000E+0	7.090000E-1	1.990000E+3	1.729370E+2
2.252500E-4	-2.629750E-5	6.630000E+0	7.090000E-1	2.510000E+3	1.729471E+2
2.271100E-4	-3.049000E-5	7.850000E+0	7.090000E-1	3.160000E+3	1.729431E+2
2.273925E-4	-3.606750E-5	9.110000E+0	7.088000E-1	3.980000E+3	1.729393E+2
2.287825E-4	-4.627750E-5	1.144000E+1	7.088000E-1	5.010000E+3	1.729346E+2
2.285500E-4	-6.059250E-5	1.478000E+1	7.086100E-1	6.310000E+3	1.729306E+2
2.245475E-4	-8.022500E-5	1.975000E+1	7.084850E-1	7.940000E+3	1.729392E+2
2.118450E-4	-9.254750E-5	2.364000E+1	7.082400E-1	1.000000E+4	1.729299E+2
2.084525E-4	-1.180175E-4	2.940000E+1	7.076300E-1	1.260000E+4	1.729422E+2
1.948350E-4	-1.379875E-4	3.530000E+1	7.072000E-1	1.580000E+4	1.729378E+2
1.840375E-4	-1.536250E-4	3.986000E+1	7.063000E-1	1.990000E+4	1.729272E+2
1.835975E-4	-1.611225E-4	4.127000E+1	7.058000E-1	2.200000E+4	1.729377E+2
					
Tsp[K]  	Tc[K]   	Ts[K]    	Rs[om]  	Po[mW]    	 Io[mA]
175.0000	175.0137	177.9013	141.0760	  3.5269	  5.0000
					
U3x[V]  	U3y[V]  	Phase[deg]	|U1|[V]  	F[Hz]    	Ts[K]  
2.468975E-4	-4.807500E-6	1.130000E+0	7.054500E-1	6.310000E+0	1.778958E+2
2.462100E-4	-5.312500E-6	1.210000E+0	7.089050E-1	7.940000E+0	1.778917E+2
2.479275E-4	-1.060250E-5	2.330000E+0	7.111600E-1	1.000000E+1	1.778913E+2
2.439275E-4	-5.227500E-6	1.290000E+0	7.125850E-1	1.260000E+1	1.778966E+2
2.432425E-4	-5.560000E-6	1.880000E+0	7.137350E-1	1.580000E+1	1.779011E+2
2.443775E-4	-8.402500E-6	2.050000E+0	7.147000E-1	1.990000E+1	1.779029E+2
2.411150E-4	-5.145000E-6	1.140000E+0	7.149000E-1	2.510000E+1	1.778970E+2
2.400100E-4	-5.027500E-6	1.210000E+0	7.151000E-1	3.160000E+1	1.778877E+2
2.394725E-4	-4.710000E-6	1.100000E+0	7.151000E-1	3.980000E+1	1.778997E+2
2.376575E-4	-9.610000E-6	4.000000E-2	7.144150E-1	5.010000E+1	1.778938E+2
2.388600E-4	-4.527500E-6	1.150000E+0	7.151100E-1	6.310000E+1	1.779015E+2
2.382075E-4	-4.600000E-6	1.170000E+0	7.151000E-1	7.940000E+1	1.778931E+2
2.368450E-4	-4.892500E-6	1.160000E+0	7.150950E-1	1.000000E+2	1.778943E+2
2.372400E-4	-5.052500E-6	1.240000E+0	7.151850E-1	1.260000E+2	1.778827E+2
2.368325E-4	-5.417500E-6	1.330000E+0	7.152000E-1	1.580000E+2	1.778971E+2
2.361825E-4	-5.852500E-6	1.440000E+0	7.152000E-1	1.990000E+2	1.778954E+2
2.355675E-4	-6.567500E-6	1.580000E+0	7.152000E-1	2.510000E+2	1.778891E+2
2.349725E-4	-7.252500E-6	1.810000E+0	7.152550E-1	3.160000E+2	1.778849E+2
2.341700E-4	-8.015000E-6	1.880000E+0	7.153000E-1	3.980000E+2	1.778951E+2
2.331700E-4	-8.917500E-6	2.130000E+0	7.153000E-1	5.010000E+2	1.778834E+2
2.324475E-4	-9.862500E-6	2.460000E+0	7.154050E-1	6.310000E+2	1.778900E+2
2.316400E-4	-1.142250E-5	2.800000E+0	7.155000E-1	7.940000E+2	1.778993E+2
2.310275E-4	-1.333000E-5	3.270000E+0	7.155200E-1	1.000000E+3	1.778883E+2
2.300850E-4	-1.535750E-5	3.990000E+0	7.156000E-1	1.260000E+3	1.778915E+2
2.294050E-4	-1.838000E-5	4.710000E+0	7.157000E-1	1.580000E+3	1.778979E+2
2.274975E-4	-2.201500E-5	5.550000E+0	7.157000E-1	1.990000E+3	1.778923E+2
2.248025E-4	-2.678750E-5	6.870000E+0	7.157000E-1	2.510000E+3	1.779029E+2
2.268425E-4	-3.116000E-5	7.870000E+0	7.157000E-1	3.160000E+3	1.778966E+2
2.277400E-4	-3.673750E-5	9.040000E+0	7.156000E-1	3.980000E+3	1.778976E+2
2.289025E-4	-4.673000E-5	1.155000E+1	7.156000E-1	5.010000E+3	1.778857E+2
2.283100E-4	-6.098500E-5	1.510000E+1	7.154000E-1	6.310000E+3	1.778948E+2
2.235925E-4	-8.105750E-5	1.990000E+1	7.152000E-1	7.940000E+3	1.778919E+2
2.119500E-4	-9.953000E-5	2.517000E+1	7.150500E-1	1.000000E+4	1.778898E+2
2.083975E-4	-1.183550E-4	2.961000E+1	7.145000E-1	1.260000E+4	1.779018E+2
1.936075E-4	-1.365975E-4	3.531000E+1	7.139000E-1	1.580000E+4	1.778935E+2
1.080575E-4	-6.653500E-5	3.170000E+1	7.130350E-1	1.990000E+4	1.778925E+2
1.810600E-4	-1.602175E-4	4.163000E+1	7.125000E-1	2.200000E+4	1.778936E+2
					
Tsp[K]  	Tc[K]   	Ts[K]    	Rs[om]  	Po[mW]    	 Io[mA]
180.0000	180.0138	182.8912	142.5070	  3.5627	  5.0000
					
U3x[V]  	U3y[V]  	Phase[deg]	|U1|[V]  	F[Hz]    	Ts[K]  
2.476225E-4	-5.255000E-6	1.240000E+0	7.126400E-1	6.310000E+0	1.828857E+2
2.467325E-4	-5.505000E-6	1.310000E+0	7.160350E-1	7.940000E+0	1.828905E+2
2.513825E-4	-2.812500E-6	6.000000E-2	7.181150E-1	1.000000E+1	1.828969E+2
2.446300E-4	-5.375000E-6	1.740000E+0	7.205500E-1	1.260000E+1	1.828914E+2
2.434700E-4	-3.820000E-6	1.860000E+0	7.214000E-1	1.580000E+1	1.828860E+2
2.446050E-4	-4.952500E-6	2.150000E+0	7.217000E-1	1.990000E+1	1.828863E+2
2.420325E-4	-5.190000E-6	1.190000E+0	7.218000E-1	2.510000E+1	1.828798E+2
2.413000E-4	-5.135000E-6	1.260000E+0	7.218400E-1	3.160000E+1	1.828938E+2
2.401025E-4	-4.870000E-6	1.150000E+0	7.219000E-1	3.980000E+1	1.828866E+2
2.384425E-4	-4.617500E-6	3.060000E+0	7.209300E-1	5.010000E+1	1.828935E+2
2.389175E-4	-4.767500E-6	1.210000E+0	7.219600E-1	6.310000E+1	1.828815E+2
2.384925E-4	-4.795000E-6	1.180000E+0	7.219650E-1	7.940000E+1	1.828869E+2
2.381300E-4	-5.070000E-6	1.270000E+0	7.220000E-1	1.000000E+2	1.828835E+2
2.373350E-4	-5.320000E-6	1.300000E+0	7.219300E-1	1.260000E+2	1.828881E+2
2.367875E-4	-5.772500E-6	1.410000E+0	7.220000E-1	1.580000E+2	1.828748E+2
2.365300E-4	-6.172500E-6	1.520000E+0	7.220000E-1	1.990000E+2	1.828856E+2
2.359125E-4	-6.772500E-6	1.700000E+0	7.220000E-1	2.510000E+2	1.828870E+2
2.352625E-4	-7.400000E-6	1.750000E+0	7.220000E-1	3.160000E+2	1.828949E+2
2.343700E-4	-8.340000E-6	2.080000E+0	7.221000E-1	3.980000E+2	1.828868E+2
2.333725E-4	-9.162500E-6	2.270000E+0	7.221000E-1	5.010000E+2	1.828941E+2
2.327275E-4	-1.029000E-5	2.540000E+0	7.222100E-1	6.310000E+2	1.828806E+2
2.319850E-4	-1.168750E-5	2.870000E+0	7.223000E-1	7.940000E+2	1.828852E+2
2.309825E-4	-1.320500E-5	3.280000E+0	7.223550E-1	1.000000E+3	1.828891E+2
2.305450E-4	-1.575750E-5	3.940000E+0	7.225000E-1	1.260000E+3	1.828774E+2
2.294300E-4	-1.848000E-5	4.490000E+0	7.225400E-1	1.580000E+3	1.828821E+2
2.277075E-4	-2.256000E-5	5.600000E+0	7.225950E-1	1.990000E+3	1.828803E+2
2.286500E-4	-2.680500E-5	6.690000E+0	7.226000E-1	2.510000E+3	1.828867E+2
2.268025E-4	-3.141000E-5	7.720000E+0	7.227000E-1	3.160000E+3	1.828813E+2
2.275200E-4	-3.764000E-5	9.490000E+0	7.225850E-1	3.980000E+3	1.828842E+2
2.287250E-4	-4.729250E-5	1.168000E+1	7.225000E-1	5.010000E+3	1.828860E+2
2.281725E-4	-6.157250E-5	1.509000E+1	7.224000E-1	6.310000E+3	1.828771E+2
2.232100E-4	-8.157500E-5	1.996000E+1	7.222700E-1	7.940000E+3	1.828837E+2
2.105025E-4	-1.037800E-4	2.613000E+1	7.221300E-1	1.000000E+4	1.828755E+2
2.071000E-4	-1.188050E-4	2.996000E+1	7.216000E-1	1.260000E+4	1.828871E+2
1.943950E-4	-1.382450E-4	3.545000E+1	7.211000E-1	1.580000E+4	1.828825E+2
1.833025E-4	-1.519275E-4	3.966000E+1	7.202000E-1	1.990000E+4	1.828796E+2
1.785025E-4	-1.600700E-4	4.186000E+1	7.197000E-1	2.200000E+4	1.828806E+2
					
Tsp[K]  	Tc[K]   	Ts[K]    	Rs[om]  	Po[mW]    	 Io[mA]
185.0000	185.0127	187.8283	144.0310	  3.6008	  5.0000
					
U3x[V]  	U3y[V]  	Phase[deg]	|U1|[V]  	F[Hz]    	Ts[K]  
2.490400E-4	-5.502500E-6	1.240000E+0	7.201950E-1	6.310000E+0	1.878178E+2
2.481450E-4	-5.722500E-6	1.360000E+0	7.235050E-1	7.940000E+0	1.878275E+2
2.413750E-4	-2.577500E-6	1.040000E+0	7.255900E-1	1.000000E+1	1.878167E+2
2.458500E-4	-5.955000E-6	1.380000E+0	7.272000E-1	1.260000E+1	1.878249E+2
2.450450E-4	-6.637500E-6	1.830000E+0	7.279900E-1	1.580000E+1	1.878182E+2
2.440025E-4	-5.262500E-6	1.240000E+0	7.288000E-1	1.990000E+1	1.878278E+2
2.428650E-4	-5.172500E-6	1.410000E+0	7.291000E-1	2.510000E+1	1.878200E+2
2.423700E-4	-5.217500E-6	1.210000E+0	7.293000E-1	3.160000E+1	1.878260E+2
2.416925E-4	-5.157500E-6	1.200000E+0	7.293000E-1	3.980000E+1	1.878224E+2
2.359525E-4	-5.835000E-6	-1.386000E+1	7.292650E-1	5.010000E+1	1.878213E+2
2.401675E-4	-4.960000E-6	1.120000E+0	7.293650E-1	6.310000E+1	1.878229E+2
2.396400E-4	-5.177500E-6	1.260000E+0	7.293500E-1	7.940000E+1	1.878232E+2
2.387750E-4	-5.245000E-6	1.130000E+0	7.293000E-1	1.000000E+2	1.878224E+2
2.384675E-4	-5.530000E-6	1.340000E+0	7.294050E-1	1.260000E+2	1.878162E+2
2.377325E-4	-6.067500E-6	1.450000E+0	7.294000E-1	1.580000E+2	1.878172E+2
2.370975E-4	-6.505000E-6	1.590000E+0	7.294000E-1	1.990000E+2	1.878210E+2
2.363900E-4	-7.052500E-6	1.700000E+0	7.294300E-1	2.510000E+2	1.878262E+2
2.355675E-4	-7.705000E-6	1.860000E+0	7.295000E-1	3.160000E+2	1.878135E+2
2.352225E-4	-8.445000E-6	2.020000E+0	7.296000E-1	3.980000E+2	1.878263E+2
2.345550E-4	-9.500000E-6	2.290000E+0	7.296000E-1	5.010000E+2	1.878160E+2
2.333925E-4	-1.054250E-5	2.620000E+0	7.296200E-1	6.310000E+2	1.878244E+2
2.327025E-4	-1.194000E-5	2.940000E+0	7.297200E-1	7.940000E+2	1.878186E+2
2.317125E-4	-1.379750E-5	3.560000E+0	7.298000E-1	1.000000E+3	1.878311E+2
2.312000E-4	-1.615500E-5	4.030000E+0	7.299000E-1	1.260000E+3	1.878231E+2
2.300075E-4	-1.895500E-5	4.690000E+0	7.300000E-1	1.580000E+3	1.878128E+2
2.281800E-4	-2.284250E-5	5.820000E+0	7.300000E-1	1.990000E+3	1.878259E+2
2.289050E-4	-2.696000E-5	6.790000E+0	7.300000E-1	2.510000E+3	1.878220E+2
2.270275E-4	-3.164500E-5	7.800000E+0	7.301000E-1	3.160000E+3	1.878204E+2
2.277575E-4	-3.750750E-5	9.360000E+0	7.299050E-1	3.980000E+3	1.878122E+2
2.293825E-4	-4.750500E-5	1.158000E+1	7.299000E-1	5.010000E+3	1.878212E+2
2.282650E-4	-6.178250E-5	1.516000E+1	7.298000E-1	6.310000E+3	1.878174E+2
2.233325E-4	-8.169750E-5	2.015000E+1	7.296000E-1	7.940000E+3	1.878175E+2
2.100025E-4	-1.065600E-4	2.714000E+1	7.294450E-1	1.000000E+4	1.878008E+2
2.065175E-4	-1.181575E-4	2.982000E+1	7.290000E-1	1.260000E+4	1.878171E+2
1.938725E-4	-1.356200E-4	3.490000E+1	7.284000E-1	1.580000E+4	1.878200E+2
1.826850E-4	-1.509400E-4	3.957000E+1	7.275000E-1	1.990000E+4	1.878206E+2
1.757675E-4	-1.597675E-4	4.215000E+1	7.270000E-1	2.200000E+4	1.878100E+2
					
Tsp[K]  	Tc[K]   	Ts[K]    	Rs[om]  	Po[mW]    	 Io[mA]
190.0000	190.0067	192.7910	145.5220	  3.6380	  5.0000
					
U3x[V]  	U3y[V]  	Phase[deg]	|U1|[V]  	F[Hz]    	Ts[K]  
2.498875E-4	-5.795000E-6	1.310000E+0	7.276850E-1	6.310000E+0	1.927831E+2
2.493850E-4	-6.285000E-6	1.450000E+0	7.308250E-1	7.940000E+0	1.927856E+2
2.520225E-4	-7.385000E-6	4.300000E-1	7.328400E-1	1.000000E+1	1.927856E+2
2.473050E-4	-6.057500E-6	1.280000E+0	7.351550E-1	1.260000E+1	1.927898E+2
2.453200E-4	-5.005000E-6	2.570000E+0	7.357900E-1	1.580000E+1	1.927842E+2
2.450275E-4	-5.947500E-6	1.010000E+0	7.361500E-1	1.990000E+1	1.927875E+2
2.437275E-4	-5.540000E-6	1.280000E+0	7.363000E-1	2.510000E+1	1.927890E+2
2.431375E-4	-5.560000E-6	1.250000E+0	7.364000E-1	3.160000E+1	1.927814E+2
2.429625E-4	-5.335000E-6	1.260000E+0	7.364000E-1	3.980000E+1	1.927865E+2
2.389800E-4	9.200000E-7	-1.990000E+1	7.363950E-1	5.010000E+1	1.927823E+2
2.412800E-4	-5.000000E-6	1.200000E+0	7.363700E-1	6.310000E+1	1.927846E+2
2.408225E-4	-5.327500E-6	1.270000E+0	7.363750E-1	7.940000E+1	1.927744E+2
2.398375E-4	-6.125000E-6	1.450000E+0	7.364200E-1	1.000000E+2	1.927819E+2
2.395275E-4	-5.827500E-6	1.410000E+0	7.364650E-1	1.260000E+2	1.927850E+2
2.387725E-4	-6.302500E-6	1.510000E+0	7.365000E-1	1.580000E+2	1.927777E+2
2.380800E-4	-6.645000E-6	1.620000E+0	7.364950E-1	1.990000E+2	1.927779E+2
2.373475E-4	-7.365000E-6	1.710000E+0	7.365100E-1	2.510000E+2	1.927944E+2
2.366050E-4	-7.952500E-6	1.910000E+0	7.365850E-1	3.160000E+2	1.927826E+2
2.360800E-4	-8.907500E-6	2.210000E+0	7.366000E-1	3.980000E+2	1.927918E+2
2.352475E-4	-9.747500E-6	2.420000E+0	7.366000E-1	5.010000E+2	1.927809E+2
2.342550E-4	-1.079750E-5	2.720000E+0	7.367000E-1	6.310000E+2	1.927752E+2
2.334075E-4	-1.223500E-5	2.920000E+0	7.368000E-1	7.940000E+2	1.927862E+2
2.327150E-4	-1.391500E-5	3.100000E+0	7.368050E-1	1.000000E+3	1.927759E+2
2.316775E-4	-1.623750E-5	3.940000E+0	7.369000E-1	1.260000E+3	1.927832E+2
2.305375E-4	-1.940500E-5	4.680000E+0	7.370000E-1	1.580000E+3	1.928013E+2
2.288250E-4	-2.351500E-5	5.880000E+0	7.370000E-1	1.990000E+3	1.927682E+2
2.289475E-4	-2.734750E-5	6.780000E+0	7.370000E-1	2.510000E+3	1.927770E+2
2.274200E-4	-3.209500E-5	8.080000E+0	7.370100E-1	3.160000E+3	1.927764E+2
2.277325E-4	-3.806750E-5	9.410000E+0	7.369000E-1	3.980000E+3	1.927800E+2
2.299400E-4	-4.786250E-5	1.166000E+1	7.369000E-1	5.010000E+3	1.927734E+2
2.280775E-4	-6.237750E-5	1.517000E+1	7.368000E-1	6.310000E+3	1.927865E+2
2.231175E-4	-8.217500E-5	2.018000E+1	7.366000E-1	7.940000E+3	1.927836E+2
2.068325E-4	-1.037800E-4	2.692000E+1	7.364400E-1	1.000000E+4	1.927676E+2
2.066050E-4	-1.192525E-4	2.994000E+1	7.360000E-1	1.260000E+4	1.927780E+2
1.942075E-4	-1.379125E-4	3.532000E+1	7.354000E-1	1.580000E+4	1.927664E+2
1.822475E-4	-1.502700E-4	3.945000E+1	7.345050E-1	1.990000E+4	1.927828E+2
1.766900E-4	-1.579650E-4	4.170000E+1	7.341000E-1	2.200000E+4	1.927749E+2
					
Tsp[K]  	Tc[K]   	Ts[K]    	Rs[om]  	Po[mW]    	 Io[mA]
195.0000	195.0154	197.6947	147.0010	  3.6750	  5.0000
					
U3x[V]  	U3y[V]  	Phase[deg]	|U1|[V]  	F[Hz]    	Ts[K]  
2.516725E-4	-6.112500E-6	1.390000E+0	7.353350E-1	6.310000E+0	1.976870E+2
2.508825E-4	-6.505000E-6	1.470000E+0	7.383500E-1	7.940000E+0	1.976862E+2
2.531650E-4	-1.097750E-5	1.550000E+0	7.403600E-1	1.000000E+1	1.976916E+2
2.497400E-4	-6.115000E-6	2.060000E+0	7.425450E-1	1.260000E+1	1.976926E+2
2.478075E-4	-6.207500E-6	8.200000E-1	7.432150E-1	1.580000E+1	1.976967E+2
2.469725E-4	-6.020000E-6	1.410000E+0	7.435000E-1	1.990000E+1	1.976812E+2
2.450025E-4	-5.725000E-6	1.380000E+0	7.435900E-1	2.510000E+1	1.976983E+2
2.441125E-4	-5.330000E-6	1.350000E+0	7.437000E-1	3.160000E+1	1.976787E+2
2.441975E-4	-5.387500E-6	1.110000E+0	7.437000E-1	3.980000E+1	1.976870E+2
2.419125E-4	8.950000E-7	5.410000E+0	7.439250E-1	5.010000E+1	1.977000E+2
2.428250E-4	-5.295000E-6	1.350000E+0	7.437350E-1	6.310000E+1	1.976918E+2
2.419775E-4	-5.575000E-6	1.250000E+0	7.437300E-1	7.940000E+1	1.977017E+2
2.415975E-4	-5.535000E-6	1.310000E+0	7.437800E-1	1.000000E+2	1.976922E+2
2.405275E-4	-6.090000E-6	1.470000E+0	7.438000E-1	1.260000E+2	1.977054E+2
2.398425E-4	-6.580000E-6	1.560000E+0	7.438000E-1	1.580000E+2	1.976984E+2
2.391400E-4	-7.027500E-6	1.710000E+0	7.438000E-1	1.990000E+2	1.976927E+2
2.382875E-4	-7.575000E-6	1.800000E+0	7.438750E-1	2.510000E+2	1.976914E+2
2.375625E-4	-8.377500E-6	2.040000E+0	7.439000E-1	3.160000E+2	1.976882E+2
2.364975E-4	-9.085000E-6	2.230000E+0	7.439650E-1	3.980000E+2	1.976839E+2
2.360525E-4	-9.997500E-6	2.420000E+0	7.440000E-1	5.010000E+2	1.976998E+2
2.350700E-4	-1.119500E-5	2.800000E+0	7.440200E-1	6.310000E+2	1.976857E+2
2.340825E-4	-1.255000E-5	3.100000E+0	7.441000E-1	7.940000E+2	1.976882E+2
2.334800E-4	-1.417250E-5	3.750000E+0	7.442000E-1	1.000000E+3	1.976786E+2
2.325250E-4	-1.660250E-5	4.240000E+0	7.443000E-1	1.260000E+3	1.976903E+2
2.313400E-4	-1.964500E-5	4.800000E+0	7.444000E-1	1.580000E+3	1.976931E+2
2.294200E-4	-2.372250E-5	5.980000E+0	7.444000E-1	1.990000E+3	1.976839E+2
2.297325E-4	-2.756500E-5	6.850000E+0	7.444000E-1	2.510000E+3	1.976902E+2
2.275975E-4	-3.198750E-5	8.010000E+0	7.445000E-1	3.160000E+3	1.976828E+2
2.285375E-4	-3.848500E-5	9.600000E+0	7.443000E-1	3.980000E+3	1.976785E+2
2.305750E-4	-4.775000E-5	1.159000E+1	7.443000E-1	5.010000E+3	1.976863E+2
2.290625E-4	-6.286250E-5	1.544000E+1	7.442000E-1	6.310000E+3	1.976979E+2
2.237875E-4	-8.293750E-5	2.037000E+1	7.440000E-1	7.940000E+3	1.976787E+2
2.061900E-4	-1.075775E-4	2.740000E+1	7.437850E-1	1.000000E+4	1.976870E+2
2.060625E-4	-1.196500E-4	3.019000E+1	7.433000E-1	1.260000E+4	1.976844E+2
1.926175E-4	-1.357650E-4	3.530000E+1	7.427000E-1	1.580000E+4	1.976907E+2
1.826350E-4	-1.508325E-4	3.952000E+1	7.418850E-1	1.990000E+4	1.976814E+2
1.778625E-4	-1.529850E-4	4.057000E+1	7.414000E-1	2.200000E+4	1.976814E+2
					
Tsp[K]  	Tc[K]   	Ts[K]    	Rs[om]  	Po[mW]    	 Io[mA]
200.0000	200.0116	202.6144	148.5330	  3.7133	  5.0000
					
U3x[V]  	U3y[V]  	Phase[deg]	|U1|[V]  	F[Hz]    	Ts[K]  
2.531400E-4	-6.530000E-6	1.440000E+0	7.428950E-1	6.310000E+0	2.026151E+2
2.518275E-4	-6.832500E-6	1.540000E+0	7.458850E-1	7.940000E+0	2.026180E+2
2.556375E-4	-1.025000E-5	2.410000E+0	7.477900E-1	1.000000E+1	2.026226E+2
2.495475E-4	-6.585000E-6	1.460000E+0	7.497200E-1	1.260000E+1	2.026122E+2
2.486150E-4	-6.330000E-6	2.800000E+0	7.504000E-1	1.580000E+1	2.026107E+2
2.476200E-4	-6.327500E-6	1.530000E+0	7.506500E-1	1.990000E+1	2.026074E+2
2.470075E-4	-5.950000E-6	1.390000E+0	7.507250E-1	2.510000E+1	2.026114E+2
2.462275E-4	-5.872500E-6	1.410000E+0	7.507700E-1	3.160000E+1	2.026105E+2
2.456075E-4	-5.980000E-6	1.320000E+0	7.507300E-1	3.980000E+1	2.026102E+2
2.453150E-4	-4.190000E-6	-1.182000E+1	7.509400E-1	5.010000E+1	2.026251E+2
2.436475E-4	-5.765000E-6	1.300000E+0	7.507700E-1	6.310000E+1	2.026193E+2
2.433175E-4	-5.765000E-6	1.450000E+0	7.508050E-1	7.940000E+1	2.026184E+2
2.423250E-4	-6.195000E-6	1.460000E+0	7.508250E-1	1.000000E+2	2.026073E+2
2.416000E-4	-6.515000E-6	1.580000E+0	7.508550E-1	1.260000E+2	2.026119E+2
2.408725E-4	-6.900000E-6	1.670000E+0	7.509000E-1	1.580000E+2	2.026097E+2
2.401675E-4	-7.302500E-6	1.740000E+0	7.509000E-1	1.990000E+2	2.026032E+2
2.392550E-4	-7.902500E-6	1.900000E+0	7.509700E-1	2.510000E+2	2.026150E+2
2.383800E-4	-8.535000E-6	2.100000E+0	7.510000E-1	3.160000E+2	2.026064E+2
2.375000E-4	-9.370000E-6	2.300000E+0	7.511000E-1	3.980000E+2	2.026146E+2
2.369675E-4	-1.043500E-5	2.530000E+0	7.511000E-1	5.010000E+2	2.026067E+2
2.357825E-4	-1.137500E-5	2.760000E+0	7.511950E-1	6.310000E+2	2.026059E+2
2.350925E-4	-1.292250E-5	3.070000E+0	7.512500E-1	7.940000E+2	2.026035E+2
2.341850E-4	-1.492250E-5	3.610000E+0	7.513000E-1	1.000000E+3	2.026093E+2
2.331000E-4	-1.698250E-5	4.170000E+0	7.514200E-1	1.260000E+3	2.026140E+2
2.319100E-4	-1.993250E-5	4.890000E+0	7.515000E-1	1.580000E+3	2.026062E+2
2.300250E-4	-2.406250E-5	5.900000E+0	7.515000E-1	1.990000E+3	2.026032E+2
2.303750E-4	-2.824750E-5	6.840000E+0	7.515100E-1	2.510000E+3	2.026002E+2
2.285000E-4	-3.249250E-5	8.200000E+0	7.516000E-1	3.160000E+3	2.026104E+2
2.292500E-4	-3.884250E-5	9.700000E+0	7.515000E-1	3.980000E+3	2.026133E+2
2.309100E-4	-4.850000E-5	1.181000E+1	7.515000E-1	5.010000E+3	2.026076E+2
2.294250E-4	-6.312250E-5	1.538000E+1	7.513000E-1	6.310000E+3	2.026100E+2
2.240125E-4	-8.335500E-5	2.050000E+1	7.511000E-1	7.940000E+3	2.026044E+2
2.070775E-4	-1.041025E-4	2.675000E+1	7.508950E-1	1.000000E+4	2.026003E+2
2.061125E-4	-1.198700E-4	3.021000E+1	7.504600E-1	1.260000E+4	2.026078E+2
1.940700E-4	-1.380950E-4	3.547000E+1	7.499000E-1	1.580000E+4	2.026092E+2
1.822500E-4	-1.488375E-4	3.926000E+1	7.490000E-1	1.990000E+4	2.026016E+2
1.810100E-4	-1.523250E-4	3.994000E+1	7.485000E-1	2.200000E+4	2.026116E+2
					
Tsp[K]  	Tc[K]   	Ts[K]    	Rs[om]  	Po[mW]    	 Io[mA]
205.0000	205.0013	207.5100	150.0330	  3.7508	  5.0000
					
U3x[V]  	U3y[V]  	Phase[deg]	|U1|[V]  	F[Hz]    	Ts[K]  
2.546425E-4	-6.835000E-6	1.600000E+0	7.504200E-1	6.310000E+0	2.074996E+2
2.538625E-4	-7.075000E-6	1.610000E+0	7.532650E-1	7.940000E+0	2.074898E+2
2.570175E-4	-1.105250E-5	2.590000E+0	7.551000E-1	1.000000E+1	2.075104E+2
2.528350E-4	-6.652500E-6	1.610000E+0	7.565950E-1	1.260000E+1	2.074870E+2
2.500650E-4	-6.522500E-6	1.990000E+0	7.575450E-1	1.580000E+1	2.074935E+2
2.520275E-4	-6.030000E-6	1.940000E+0	7.579000E-1	1.990000E+1	2.074853E+2
2.486600E-4	-5.982500E-6	1.320000E+0	7.579650E-1	2.510000E+1	2.074949E+2
2.476475E-4	-6.055000E-6	1.370000E+0	7.580000E-1	3.160000E+1	2.074973E+2
2.464250E-4	-5.885000E-6	1.400000E+0	7.580000E-1	3.980000E+1	2.074989E+2
2.445100E-4	-1.028750E-5	1.094000E+1	7.578900E-1	5.010000E+1	2.074935E+2
2.453025E-4	-5.972500E-6	1.400000E+0	7.580450E-1	6.310000E+1	2.075015E+2
2.445125E-4	-6.070000E-6	1.380000E+0	7.580250E-1	7.940000E+1	2.074967E+2
2.435975E-4	-6.365000E-6	1.680000E+0	7.580700E-1	1.000000E+2	2.074968E+2
2.429750E-4	-6.740000E-6	1.590000E+0	7.580900E-1	1.260000E+2	2.074924E+2
2.421800E-4	-7.245000E-6	1.700000E+0	7.581000E-1	1.580000E+2	2.074896E+2
2.413150E-4	-7.605000E-6	1.790000E+0	7.581000E-1	1.990000E+2	2.074926E+2
2.403200E-4	-8.257500E-6	1.950000E+0	7.581400E-1	2.510000E+2	2.074968E+2
2.394475E-4	-8.855000E-6	2.100000E+0	7.582000E-1	3.160000E+2	2.074888E+2
2.385000E-4	-9.710000E-6	2.340000E+0	7.582000E-1	3.980000E+2	2.074924E+2
2.377675E-4	-1.064000E-5	2.540000E+0	7.583000E-1	5.010000E+2	2.075034E+2
2.370925E-4	-1.172250E-5	2.880000E+0	7.583950E-1	6.310000E+2	2.074904E+2
2.359000E-4	-1.305750E-5	3.210000E+0	7.584000E-1	7.940000E+2	2.074979E+2
2.347625E-4	-1.493500E-5	3.730000E+0	7.584150E-1	1.000000E+3	2.074945E+2
2.338325E-4	-1.736750E-5	4.290000E+0	7.585000E-1	1.260000E+3	2.074856E+2
2.327375E-4	-2.033500E-5	5.030000E+0	7.586000E-1	1.580000E+3	2.075017E+2
2.307775E-4	-2.460750E-5	5.880000E+0	7.586000E-1	1.990000E+3	2.074918E+2
2.308925E-4	-2.832250E-5	7.070000E+0	7.586000E-1	2.510000E+3	2.074895E+2
2.290050E-4	-3.299000E-5	8.170000E+0	7.586000E-1	3.160000E+3	2.074966E+2
2.298850E-4	-3.961750E-5	9.750000E+0	7.585000E-1	3.980000E+3	2.074860E+2
2.310625E-4	-4.892500E-5	1.187000E+1	7.585000E-1	5.010000E+3	2.074878E+2
2.298825E-4	-6.389250E-5	1.554000E+1	7.584000E-1	6.310000E+3	2.075018E+2
2.235750E-4	-8.420750E-5	2.074000E+1	7.582000E-1	7.940000E+3	2.074885E+2
2.082425E-4	-1.028000E-4	2.629000E+1	7.579650E-1	1.000000E+4	2.074863E+2
2.061550E-4	-1.204125E-4	3.030000E+1	7.575000E-1	1.260000E+4	2.074892E+2
1.930400E-4	-1.366850E-4	3.531000E+1	7.570000E-1	1.580000E+4	2.074994E+2
1.814600E-4	-1.490925E-4	3.938000E+1	7.561000E-1	1.990000E+4	2.075011E+2
1.751950E-4	-1.593125E-4	4.265000E+1	7.556000E-1	2.200000E+4	2.074913E+2
					
Tsp[K]  	Tc[K]   	Ts[K]    	Rs[om]  	Po[mW]    	 Io[mA]
210.0000	210.0093	212.3746	151.5020	  3.7875	  5.0000
					
U3x[V]  	U3y[V]  	Phase[deg]	|U1|[V]  	F[Hz]    	Ts[K]  
2.564475E-4	-7.165000E-6	1.600000E+0	7.579100E-1	6.310000E+0	2.123824E+2
2.555525E-4	-7.277500E-6	1.650000E+0	7.606600E-1	7.940000E+0	2.123646E+2
2.584325E-4	-1.070500E-5	3.030000E+0	7.623800E-1	1.000000E+1	2.123663E+2
2.528750E-4	-7.245000E-6	1.550000E+0	7.642300E-1	1.260000E+1	2.123690E+2
2.523650E-4	-6.737500E-6	1.520000E+0	7.647900E-1	1.580000E+1	2.123578E+2
2.515250E-4	-3.670000E-6	8.700000E-1	7.650000E-1	1.990000E+1	2.123546E+2
2.500200E-4	-6.330000E-6	1.410000E+0	7.649800E-1	2.510000E+1	2.123651E+2
2.488475E-4	-6.367500E-6	1.460000E+0	7.651000E-1	3.160000E+1	2.123704E+2
2.484275E-4	-6.075000E-6	1.410000E+0	7.651000E-1	3.980000E+1	2.123608E+2
2.433900E-4	-1.847500E-6	-1.372000E+1	7.646850E-1	5.010000E+1	2.123492E+2
2.470975E-4	-6.225000E-6	1.500000E+0	7.651700E-1	6.310000E+1	2.123627E+2
2.460350E-4	-6.407500E-6	1.450000E+0	7.651850E-1	7.940000E+1	2.123544E+2
2.451800E-4	-6.645000E-6	1.660000E+0	7.651650E-1	1.000000E+2	2.123570E+2
2.444325E-4	-7.030000E-6	1.600000E+0	7.652000E-1	1.260000E+2	2.123533E+2
2.435925E-4	-7.472500E-6	1.760000E+0	7.652000E-1	1.580000E+2	2.123593E+2
2.426550E-4	-7.940000E-6	1.900000E+0	7.652050E-1	1.990000E+2	2.123673E+2
2.417075E-4	-8.582500E-6	2.030000E+0	7.652950E-1	2.510000E+2	2.123595E+2
2.408200E-4	-9.252500E-6	2.150000E+0	7.653000E-1	3.160000E+2	2.123648E+2
2.398150E-4	-1.003250E-5	2.450000E+0	7.654000E-1	3.980000E+2	2.123596E+2
2.389350E-4	-1.094250E-5	2.520000E+0	7.654000E-1	5.010000E+2	2.123591E+2
2.382475E-4	-1.220250E-5	2.950000E+0	7.655000E-1	6.310000E+2	2.123562E+2
2.370550E-4	-1.340250E-5	3.280000E+0	7.655000E-1	7.940000E+2	2.123495E+2
2.361250E-4	-1.566750E-5	3.860000E+0	7.656000E-1	1.000000E+3	2.123592E+2
2.350350E-4	-1.766000E-5	4.360000E+0	7.657000E-1	1.260000E+3	2.123611E+2
2.337000E-4	-2.075000E-5	5.070000E+0	7.657950E-1	1.580000E+3	2.123660E+2
2.316500E-4	-2.485250E-5	6.080000E+0	7.658000E-1	1.990000E+3	2.123567E+2
2.318000E-4	-2.893500E-5	7.120000E+0	7.657150E-1	2.510000E+3	2.123448E+2
2.298600E-4	-3.340750E-5	8.390000E+0	7.658000E-1	3.160000E+3	2.123653E+2
2.309450E-4	-3.987000E-5	9.880000E+0	7.657000E-1	3.980000E+3	2.123642E+2
2.314350E-4	-4.951500E-5	1.220000E+1	7.657000E-1	5.010000E+3	2.123540E+2
2.305325E-4	-6.451250E-5	1.555000E+1	7.655000E-1	6.310000E+3	2.123574E+2
2.242200E-4	-8.506500E-5	2.070000E+1	7.653150E-1	7.940000E+3	2.123520E+2
2.104050E-4	-1.125100E-4	2.822000E+1	7.651500E-1	1.000000E+4	2.123588E+2
2.061000E-4	-1.210925E-4	3.038000E+1	7.647000E-1	1.260000E+4	2.123615E+2
1.921175E-4	-1.365500E-4	3.543000E+1	7.641000E-1	1.580000E+4	2.123540E+2
1.821875E-4	-1.483900E-4	3.918000E+1	7.632000E-1	1.990000E+4	2.123537E+2
1.739250E-4	-1.569675E-4	4.206000E+1	7.627000E-1	2.200000E+4	2.123600E+2
					
Tsp[K]  	Tc[K]   	Ts[K]    	Rs[om]  	Po[mW]    	 Io[mA]
215.0000	215.0092	217.2108	152.9760	  3.8244	  5.0000
					
U3x[V]  	U3y[V]  	Phase[deg]	|U1|[V]  	F[Hz]    	Ts[K]  
2.583925E-4	-7.382500E-6	1.690000E+0	7.652000E-1	6.310000E+0	2.172299E+2
2.572075E-4	-7.647500E-6	1.730000E+0	7.678950E-1	7.940000E+0	2.172126E+2
2.527075E-4	-3.080000E-6	2.800000E-1	7.694900E-1	1.000000E+1	2.172136E+2
2.553350E-4	-7.092500E-6	1.570000E+0	7.712250E-1	1.260000E+1	2.172201E+2
2.538125E-4	-7.282500E-6	3.230000E+0	7.717000E-1	1.580000E+1	2.172004E+2
2.525475E-4	-6.767500E-6	1.430000E+0	7.719000E-1	1.990000E+1	2.172128E+2
2.517675E-4	-6.077500E-6	1.410000E+0	7.720000E-1	2.510000E+1	2.172153E+2
2.509000E-4	-6.637500E-6	1.500000E+0	7.719750E-1	3.160000E+1	2.172098E+2
2.501650E-4	-6.360000E-6	1.440000E+0	7.719450E-1	3.980000E+1	2.172023E+2
2.410575E-4	-1.146000E-5	-7.110000E+0	7.722550E-1	5.010000E+1	2.172036E+2
2.484975E-4	-6.507500E-6	1.520000E+0	7.720000E-1	6.310000E+1	2.172045E+2
2.475150E-4	-6.635000E-6	1.520000E+0	7.719650E-1	7.940000E+1	2.171998E+2
2.464550E-4	-6.920000E-6	1.690000E+0	7.720450E-1	1.000000E+2	2.172077E+2
2.456400E-4	-7.377500E-6	1.670000E+0	7.719850E-1	1.260000E+2	2.172059E+2
2.447800E-4	-7.845000E-6	1.860000E+0	7.720000E-1	1.580000E+2	2.172111E+2
2.438375E-4	-8.222500E-6	1.900000E+0	7.720000E-1	1.990000E+2	2.172106E+2
2.428075E-4	-8.907500E-6	2.120000E+0	7.720100E-1	2.510000E+2	2.172028E+2
2.417850E-4	-9.495000E-6	2.230000E+0	7.720800E-1	3.160000E+2	2.172063E+2
2.407475E-4	-1.027250E-5	2.480000E+0	7.721000E-1	3.980000E+2	2.172129E+2
2.398100E-4	-1.123000E-5	2.670000E+0	7.721200E-1	5.010000E+2	2.172001E+2
2.391225E-4	-1.245250E-5	3.100000E+0	7.722000E-1	6.310000E+2	2.172087E+2
2.377875E-4	-1.382250E-5	3.290000E+0	7.722000E-1	7.940000E+2	2.172023E+2
2.366800E-4	-1.590250E-5	3.710000E+0	7.723000E-1	1.000000E+3	2.172106E+2
2.357125E-4	-1.817250E-5	4.400000E+0	7.723950E-1	1.260000E+3	2.171949E+2
2.344275E-4	-2.118750E-5	5.120000E+0	7.724150E-1	1.580000E+3	2.172000E+2
2.321825E-4	-2.525500E-5	6.200000E+0	7.724000E-1	1.990000E+3	2.172018E+2
2.321050E-4	-2.936750E-5	7.210000E+0	7.724000E-1	2.510000E+3	2.171972E+2
2.306900E-4	-3.369000E-5	8.280000E+0	7.725000E-1	3.160000E+3	2.172148E+2
2.312500E-4	-4.055750E-5	9.900000E+0	7.723000E-1	3.980000E+3	2.171968E+2
2.324525E-4	-5.053750E-5	1.228000E+1	7.723000E-1	5.010000E+3	2.172076E+2
2.308425E-4	-6.577500E-5	1.603000E+1	7.721000E-1	6.310000E+3	2.172101E+2
2.240525E-4	-8.638500E-5	2.107000E+1	7.719000E-1	7.940000E+3	2.172061E+2
2.052875E-4	-1.058425E-4	2.703000E+1	7.716450E-1	1.000000E+4	2.172021E+2
2.047850E-4	-1.221000E-4	3.079000E+1	7.711000E-1	1.260000E+4	2.172051E+2
1.922450E-4	-1.391575E-4	3.580000E+1	7.705050E-1	1.580000E+4	2.172046E+2
1.809875E-4	-1.506325E-4	3.974000E+1	7.696000E-1	1.990000E+4	2.172051E+2
1.783075E-4	-1.550800E-4	4.106000E+1	7.691000E-1	2.200000E+4	2.172063E+2
					
Tsp[K]  	Tc[K]   	Ts[K]    	Rs[om]  	Po[mW]    	 Io[mA]
220.0000	220.0032	222.0115	154.3960	  3.8599	  5.0000
					
U3x[V]  	U3y[V]  	Phase[deg]	|U1|[V]  	F[Hz]    	Ts[K]  
2.597825E-4	-7.632500E-6	1.680000E+0	7.721500E-1	6.310000E+0	2.220017E+2
2.584625E-4	-7.852500E-6	1.750000E+0	7.747700E-1	7.940000E+0	2.220154E+2
2.529375E-4	-1.131750E-5	2.560000E+0	7.763400E-1	1.000000E+1	2.220050E+2
2.558450E-4	-7.812500E-6	1.700000E+0	7.776250E-1	1.260000E+1	2.219982E+2
2.545300E-4	-6.960000E-6	3.500000E+0	7.782400E-1	1.580000E+1	2.220022E+2
2.540375E-4	-7.267500E-6	1.660000E+0	7.784600E-1	1.990000E+1	2.219906E+2
2.534600E-4	-6.727500E-6	1.610000E+0	7.784700E-1	2.510000E+1	2.219986E+2
2.517825E-4	-6.887500E-6	1.580000E+0	7.785000E-1	3.160000E+1	2.219860E+2
2.514725E-4	-6.457500E-6	1.440000E+0	7.785000E-1	3.980000E+1	2.219886E+2
2.522100E-4	-5.400000E-6	1.132000E+1	7.758900E-1	5.010000E+1	2.219905E+2
2.498900E-4	-6.800000E-6	1.580000E+0	7.784350E-1	6.310000E+1	2.219913E+2
2.487050E-4	-6.960000E-6	1.610000E+0	7.784000E-1	7.940000E+1	2.220008E+2
2.477225E-4	-7.310000E-6	1.630000E+0	7.784050E-1	1.000000E+2	2.220054E+2
2.468750E-4	-7.712500E-6	1.790000E+0	7.784150E-1	1.260000E+2	2.219915E+2
2.459025E-4	-8.145000E-6	1.910000E+0	7.784150E-1	1.580000E+2	2.219909E+2
2.448950E-4	-8.665000E-6	2.040000E+0	7.784400E-1	1.990000E+2	2.219887E+2
2.438425E-4	-9.207500E-6	2.150000E+0	7.784800E-1	2.510000E+2	2.219962E+2
2.427600E-4	-9.897500E-6	2.300000E+0	7.785000E-1	3.160000E+2	2.219991E+2
2.417650E-4	-1.073000E-5	2.580000E+0	7.785000E-1	3.980000E+2	2.219774E+2
2.407575E-4	-1.165500E-5	2.810000E+0	7.786000E-1	5.010000E+2	2.219874E+2
2.397875E-4	-1.290000E-5	3.010000E+0	7.786950E-1	6.310000E+2	2.219908E+2
2.386000E-4	-1.424750E-5	3.390000E+0	7.787000E-1	7.940000E+2	2.220001E+2
2.373700E-4	-1.615500E-5	4.040000E+0	7.787350E-1	1.000000E+3	2.219893E+2
2.364800E-4	-1.850000E-5	4.410000E+0	7.788000E-1	1.260000E+3	2.219815E+2
2.350175E-4	-2.185750E-5	5.200000E+0	7.788900E-1	1.580000E+3	2.219900E+2
2.327975E-4	-2.593750E-5	6.450000E+0	7.788000E-1	1.990000E+3	2.219770E+2
2.329100E-4	-3.019250E-5	7.380000E+0	7.787000E-1	2.510000E+3	2.219884E+2
2.309300E-4	-3.458000E-5	8.510000E+0	7.788000E-1	3.160000E+3	2.219774E+2
2.316525E-4	-4.173250E-5	9.950000E+0	7.786000E-1	3.980000E+3	2.219897E+2
2.321100E-4	-5.152000E-5	1.253000E+1	7.786000E-1	5.010000E+3	2.219861E+2
2.305250E-4	-6.710500E-5	1.614000E+1	7.784000E-1	6.310000E+3	2.219828E+2
2.238775E-4	-8.782750E-5	2.140000E+1	7.782000E-1	7.940000E+3	2.219929E+2
2.053850E-4	-1.066475E-4	2.743000E+1	7.779850E-1	1.000000E+4	2.220061E+2
2.029125E-4	-1.233700E-4	3.140000E+1	7.774000E-1	1.260000E+4	2.219900E+2
1.906325E-4	-1.404775E-4	3.639000E+1	7.768000E-1	1.580000E+4	2.219889E+2
1.785500E-4	-1.525050E-4	4.058000E+1	7.758000E-1	1.990000E+4	2.219861E+2
1.721375E-4	-1.580400E-4	4.264000E+1	7.753000E-1	2.200000E+4	2.219809E+2
					
Tsp[K]  	Tc[K]   	Ts[K]    	Rs[om]  	Po[mW]    	 Io[mA]
225.0000	224.9972	226.7910	155.8290	  3.8957	  5.0000
					
U3x[V]  	U3y[V]  	Phase[deg]	|U1|[V]  	F[Hz]    	Ts[K]  
2.614800E-4	-7.917500E-6	1.730000E+0	7.790050E-1	6.310000E+0	2.267872E+2
2.605525E-4	-8.152500E-6	1.800000E+0	7.814950E-1	7.940000E+0	2.267753E+2
2.620700E-4	-1.510250E-5	3.280000E+0	7.829300E-1	1.000000E+1	2.267750E+2
2.579675E-4	-7.712500E-6	1.580000E+0	7.838000E-1	1.260000E+1	2.267849E+2
2.562750E-4	-7.872500E-6	2.390000E+0	7.843000E-1	1.580000E+1	2.267815E+2
2.560350E-4	-8.747500E-6	1.100000E+0	7.847000E-1	1.990000E+1	2.267623E+2
2.545550E-4	-6.937500E-6	1.640000E+0	7.848450E-1	2.510000E+1	2.267605E+2
2.535925E-4	-7.002500E-6	1.600000E+0	7.849000E-1	3.160000E+1	2.267656E+2
2.527325E-4	-6.830000E-6	1.560000E+0	7.848950E-1	3.980000E+1	2.267602E+2
2.604275E-4	-4.657500E-6	1.201000E+1	7.847550E-1	5.010000E+1	2.267737E+2
2.509100E-4	-7.042500E-6	1.630000E+0	7.850150E-1	6.310000E+1	2.267633E+2
2.503300E-4	-7.215000E-6	1.680000E+0	7.850500E-1	7.940000E+1	2.267665E+2
2.489625E-4	-7.517500E-6	1.850000E+0	7.850000E-1	1.000000E+2	2.267703E+2
2.480625E-4	-7.962500E-6	1.840000E+0	7.850450E-1	1.260000E+2	2.267671E+2
2.470325E-4	-8.495000E-6	1.990000E+0	7.851000E-1	1.580000E+2	2.267696E+2
2.459150E-4	-8.817500E-6	2.050000E+0	7.851000E-1	1.990000E+2	2.267685E+2
2.448875E-4	-9.607500E-6	2.220000E+0	7.851050E-1	2.510000E+2	2.267595E+2
2.436175E-4	-1.027250E-5	2.360000E+0	7.852000E-1	3.160000E+2	2.267708E+2
2.423150E-4	-1.122250E-5	2.620000E+0	7.852300E-1	3.980000E+2	2.267647E+2
2.414150E-4	-1.197500E-5	2.880000E+0	7.852950E-1	5.010000E+2	2.267709E+2
2.403825E-4	-1.322500E-5	3.110000E+0	7.853000E-1	6.310000E+2	2.267747E+2
2.392950E-4	-1.465500E-5	3.590000E+0	7.853250E-1	7.940000E+2	2.267662E+2
2.384300E-4	-1.663000E-5	3.850000E+0	7.854000E-1	1.000000E+3	2.267518E+2
2.369450E-4	-1.912500E-5	4.570000E+0	7.854000E-1	1.260000E+3	2.267611E+2
2.354050E-4	-2.245250E-5	5.450000E+0	7.855000E-1	1.580000E+3	2.267589E+2
2.330450E-4	-2.660500E-5	6.540000E+0	7.854050E-1	1.990000E+3	2.267615E+2
2.332850E-4	-3.071000E-5	7.580000E+0	7.854000E-1	2.510000E+3	2.267561E+2
2.313525E-4	-3.510500E-5	8.640000E+0	7.854100E-1	3.160000E+3	2.267667E+2
2.319750E-4	-4.207500E-5	1.031000E+1	7.852000E-1	3.980000E+3	2.267524E+2
2.327300E-4	-5.302000E-5	1.288000E+1	7.852000E-1	5.010000E+3	2.267531E+2
2.304100E-4	-6.867750E-5	1.660000E+1	7.850000E-1	6.310000E+3	2.267557E+2
2.233250E-4	-8.969000E-5	2.188000E+1	7.848000E-1	7.940000E+3	2.267691E+2
2.058425E-4	-1.147200E-4	2.924000E+1	7.845150E-1	1.000000E+4	2.267742E+2
2.023750E-4	-1.252150E-4	3.179000E+1	7.840000E-1	1.260000E+4	2.267527E+2
1.887925E-4	-1.417950E-4	3.691000E+1	7.834000E-1	1.580000E+4	2.267697E+2
1.774425E-4	-1.549625E-4	4.111000E+1	7.824000E-1	1.990000E+4	2.267713E+2
1.760250E-4	-1.585575E-4	4.203000E+1	7.818000E-1	2.200000E+4	2.267641E+2
					
Tsp[K]  	Tc[K]   	Ts[K]    	Rs[om]  	Po[mW]    	 Io[mA]
230.0000	230.0040	231.4607	157.4370	  3.9359	  5.0000
					
U3x[V]  	U3y[V]  	Phase[deg]	|U1|[V]  	F[Hz]    	Ts[K]  
2.636375E-4	-8.350000E-6	1.800000E+0	7.869950E-1	6.310000E+0	2.314502E+2
2.620800E-4	-8.520000E-6	1.860000E+0	7.893450E-1	7.940000E+0	2.314696E+2
2.681550E-4	-8.355000E-6	1.260000E+0	7.907000E-1	1.000000E+1	2.314708E+2
2.590975E-4	-8.345000E-6	1.890000E+0	7.913850E-1	1.260000E+1	2.314782E+2
2.587925E-4	-7.742500E-6	6.900000E-1	7.920000E-1	1.580000E+1	2.314765E+2
2.578025E-4	-9.287500E-6	2.120000E+0	7.924000E-1	1.990000E+1	2.314851E+2
2.566475E-4	-7.112500E-6	1.520000E+0	7.925200E-1	2.510000E+1	2.314804E+2
2.554725E-4	-7.362500E-6	1.650000E+0	7.926050E-1	3.160000E+1	2.314679E+2
2.547500E-4	-7.185000E-6	1.590000E+0	7.926500E-1	3.980000E+1	2.314719E+2
2.555850E-4	-7.457500E-6	7.040000E+0	7.921550E-1	5.010000E+1	2.314592E+2
2.530575E-4	-7.395000E-6	1.720000E+0	7.928550E-1	6.310000E+1	2.314615E+2
2.520250E-4	-7.707500E-6	1.720000E+0	7.929100E-1	7.940000E+1	2.314712E+2
2.509825E-4	-8.142500E-6	1.930000E+0	7.928900E-1	1.000000E+2	2.314692E+2
2.496975E-4	-8.452500E-6	1.940000E+0	7.929000E-1	1.260000E+2	2.314903E+2
2.486275E-4	-8.900000E-6	2.040000E+0	7.929200E-1	1.580000E+2	2.314797E+2
2.474825E-4	-9.322500E-6	2.150000E+0	7.930000E-1	1.990000E+2	2.314789E+2
2.463550E-4	-1.003000E-5	2.320000E+0	7.929900E-1	2.510000E+2	2.314802E+2
2.451800E-4	-1.056000E-5	2.530000E+0	7.930800E-1	3.160000E+2	2.314882E+2
2.439025E-4	-1.145250E-5	2.710000E+0	7.931000E-1	3.980000E+2	2.314815E+2
2.429575E-4	-1.245500E-5	2.880000E+0	7.932000E-1	5.010000E+2	2.314702E+2
2.418025E-4	-1.370500E-5	3.210000E+0	7.933000E-1	6.310000E+2	2.314827E+2
2.406275E-4	-1.527500E-5	3.620000E+0	7.933000E-1	7.940000E+2	2.314721E+2
2.396075E-4	-1.739500E-5	3.940000E+0	7.933250E-1	1.000000E+3	2.314749E+2
2.380525E-4	-1.966750E-5	4.650000E+0	7.934000E-1	1.260000E+3	2.314701E+2
2.367775E-4	-2.286500E-5	5.600000E+0	7.935000E-1	1.580000E+3	2.314658E+2
2.341300E-4	-2.715000E-5	6.490000E+0	7.935000E-1	1.990000E+3	2.314758E+2
2.343475E-4	-3.126000E-5	7.720000E+0	7.934000E-1	2.510000E+3	2.314699E+2
2.323400E-4	-3.590000E-5	8.890000E+0	7.934250E-1	3.160000E+3	2.314557E+2
2.330300E-4	-4.267750E-5	1.005000E+1	7.933000E-1	3.980000E+3	2.314614E+2
2.336050E-4	-5.389000E-5	1.312000E+1	7.933000E-1	5.010000E+3	2.314611E+2
2.314700E-4	-6.998250E-5	1.678000E+1	7.932000E-1	6.310000E+3	2.314636E+2
2.238025E-4	-9.161250E-5	2.232000E+1	7.930000E-1	7.940000E+3	2.314635E+2
2.052800E-4	-1.145175E-4	2.902000E+1	7.926700E-1	1.000000E+4	2.314629E+2
2.030200E-4	-1.263275E-4	3.173000E+1	7.922000E-1	1.260000E+4	2.314758E+2
1.889175E-4	-1.422725E-4	3.696000E+1	7.916000E-1	1.580000E+4	2.314850E+2
1.772475E-4	-1.569850E-4	4.155000E+1	7.906000E-1	1.990000E+4	2.314871E+2
1.688475E-4	-1.526400E-4	4.209000E+1	7.901000E-1	2.200000E+4	2.314666E+2
					
Tsp[K]  	Tc[K]   	Ts[K]    	Rs[om]  	Po[mW]    	 Io[mA]
235.0000	234.6484	235.2292	158.7220	  3.9681	  5.0000
					
U3x[V]  	U3y[V]  	Phase[deg]	|U1|[V]  	F[Hz]    	Ts[K]  
2.658025E-4	-8.705000E-6	1.850000E+0	7.944150E-1	6.310000E+0	2.353862E+2
2.644600E-4	-8.777500E-6	1.910000E+0	7.969650E-1	7.940000E+0	2.353778E+2
2.585625E-4	-3.475000E-6	5.200000E-1	7.982950E-1	1.000000E+1	2.353837E+2
2.616325E-4	-8.247500E-6	1.670000E+0	7.995400E-1	1.260000E+1	2.354159E+2
2.622300E-4	-7.535000E-6	4.100000E-1	7.999850E-1	1.580000E+1	2.354039E+2
2.604000E-4	-8.180000E-6	1.640000E+0	8.004400E-1	1.990000E+1	2.353995E+2
2.589275E-4	-7.300000E-6	1.590000E+0	8.007000E-1	2.510000E+1	2.354066E+2
2.575950E-4	-7.470000E-6	1.680000E+0	8.009300E-1	3.160000E+1	2.354058E+2
2.565825E-4	-7.455000E-6	1.660000E+0	8.010000E-1	3.980000E+1	2.354036E+2
2.555625E-4	-2.057500E-6	-2.440000E+0	8.010950E-1	5.010000E+1	2.354018E+2
2.553825E-4	-7.747500E-6	1.760000E+0	8.015650E-1	6.310000E+1	2.354036E+2
2.541225E-4	-8.082500E-6	1.830000E+0	8.016700E-1	7.940000E+1	2.353973E+2
2.530200E-4	-8.210000E-6	1.960000E+0	8.017850E-1	1.000000E+2	2.354013E+2
2.519375E-4	-8.790000E-6	2.050000E+0	8.019000E-1	1.260000E+2	2.354084E+2
2.508100E-4	-9.215000E-6	2.180000E+0	8.020000E-1	1.580000E+2	2.354124E+2
2.496725E-4	-9.712500E-6	2.210000E+0	8.021000E-1	1.990000E+2	2.354229E+2
2.484375E-4	-1.033000E-5	2.360000E+0	8.021850E-1	2.510000E+2	2.354069E+2
2.477650E-4	-1.110250E-5	2.560000E+0	8.023000E-1	3.160000E+2	2.354100E+2
2.464600E-4	-1.189250E-5	2.730000E+0	8.024000E-1	3.980000E+2	2.354130E+2
2.449425E-4	-1.280000E-5	2.910000E+0	8.025000E-1	5.010000E+2	2.354178E+2
2.438525E-4	-1.410250E-5	3.340000E+0	8.026800E-1	6.310000E+2	2.354058E+2
2.425150E-4	-1.548000E-5	3.680000E+0	8.028000E-1	7.940000E+2	2.354266E+2
2.414825E-4	-1.771750E-5	4.000000E+0	8.029400E-1	1.000000E+3	2.354254E+2
2.400600E-4	-2.004750E-5	4.750000E+0	8.032000E-1	1.260000E+3	2.354342E+2
2.381950E-4	-2.325500E-5	5.580000E+0	8.033700E-1	1.580000E+3	2.354236E+2
2.354000E-4	-2.736000E-5	6.800000E+0	8.034350E-1	1.990000E+3	2.354302E+2
2.356000E-4	-3.139000E-5	7.580000E+0	8.035400E-1	2.510000E+3	2.354393E+2
2.343075E-4	-3.638750E-5	8.960000E+0	8.038000E-1	3.160000E+3	2.354290E+2
2.347550E-4	-4.316500E-5	1.051000E+1	8.038000E-1	3.980000E+3	2.354303E+2
2.343950E-4	-5.450000E-5	1.322000E+1	8.040000E-1	5.010000E+3	2.354416E+2
2.324125E-4	-7.069750E-5	1.703000E+1	8.039950E-1	6.310000E+3	2.354366E+2
2.241725E-4	-9.159000E-5	2.238000E+1	8.039000E-1	7.940000E+3	2.354338E+2
2.201525E-4	-1.092950E-4	2.634000E+1	8.038200E-1	1.000000E+4	2.354505E+2
2.032625E-4	-1.267750E-4	3.206000E+1	8.034000E-1	1.260000E+4	2.354553E+2
1.908550E-4	-1.437800E-4	3.696000E+1	8.029000E-1	1.580000E+4	2.354664E+2
1.769950E-4	-1.556000E-4	4.131000E+1	8.019000E-1	1.990000E+4	2.354606E+2
1.769700E-4	-1.601050E-4	4.213000E+1	8.014200E-1	2.200000E+4	2.354839E+2
					
Tsp[K]  	Tc[K]   	Ts[K]    	Rs[om]  	Po[mW]    	 Io[mA]
240.0000	240.0646	240.4372	162.0160	  4.0504	  5.0000
					
U3x[V]  	U3y[V]  	Phase[deg]	|U1|[V]  	F[Hz]    	Ts[K]  
2.714975E-4	-9.290000E-6	1.960000E+0	8.093250E-1	6.310000E+0	2.398956E+2
2.691775E-4	-9.147500E-6	1.960000E+0	8.109000E-1	7.940000E+0	2.397584E+2
2.695800E-4	-2.302500E-6	4.900000E-1	8.119700E-1	1.000000E+1	2.400826E+2
2.670725E-4	-8.417500E-6	1.760000E+0	8.128000E-1	1.260000E+1	2.402460E+2
2.650175E-4	-8.345000E-6	1.660000E+0	8.129500E-1	1.580000E+1	2.401853E+2
2.646725E-4	-1.018500E-5	2.240000E+0	8.133000E-1	1.990000E+1	2.401787E+2
2.626550E-4	-7.895000E-6	1.680000E+0	8.135000E-1	2.510000E+1	2.402024E+2
2.624350E-4	-8.040000E-6	1.780000E+0	8.138000E-1	3.160000E+1	2.401803E+2
2.609625E-4	-7.905000E-6	1.750000E+0	8.138000E-1	3.980000E+1	2.401949E+2
2.618750E-4	-9.385000E-6	7.530000E+0	8.146600E-1	5.010000E+1	2.402130E+2
2.592775E-4	-8.460000E-6	1.910000E+0	8.143900E-1	6.310000E+1	2.402192E+2
2.579075E-4	-8.700000E-6	1.910000E+0	8.144050E-1	7.940000E+1	2.402310E+2
2.564725E-4	-9.072500E-6	2.030000E+0	8.145300E-1	1.000000E+2	2.402209E+2
2.556300E-4	-9.440000E-6	2.110000E+0	8.145350E-1	1.260000E+2	2.402233E+2
2.541850E-4	-1.001000E-5	2.250000E+0	8.146000E-1	1.580000E+2	2.402347E+2
2.528950E-4	-1.035750E-5	2.370000E+0	8.146950E-1	1.990000E+2	2.402460E+2
2.515775E-4	-1.098250E-5	2.550000E+0	8.148000E-1	2.510000E+2	2.402402E+2
2.503950E-4	-1.162750E-5	2.680000E+0	8.148400E-1	3.160000E+2	2.402338E+2
2.490050E-4	-1.265500E-5	2.850000E+0	8.149050E-1	3.980000E+2	2.402386E+2
2.478725E-4	-1.357000E-5	3.090000E+0	8.150300E-1	5.010000E+2	2.402484E+2
2.464900E-4	-1.494500E-5	3.490000E+0	8.152000E-1	6.310000E+2	2.402364E+2
2.454825E-4	-1.638000E-5	3.840000E+0	8.152850E-1	7.940000E+2	2.402518E+2
2.439650E-4	-1.784500E-5	3.950000E+0	8.153000E-1	1.000000E+3	2.402526E+2
2.424475E-4	-2.114000E-5	5.060000E+0	8.155000E-1	1.260000E+3	2.402565E+2
2.408500E-4	-2.442750E-5	5.800000E+0	8.157000E-1	1.580000E+3	2.402576E+2
2.381525E-4	-2.873750E-5	6.780000E+0	8.157000E-1	1.990000E+3	2.402653E+2
2.382650E-4	-3.251500E-5	8.070000E+0	8.157050E-1	2.510000E+3	2.402762E+2
2.361975E-4	-3.724750E-5	9.050000E+0	8.158900E-1	3.160000E+3	2.402753E+2
2.364375E-4	-4.434750E-5	1.073000E+1	8.157000E-1	3.980000E+3	2.402800E+2
2.360675E-4	-5.638500E-5	1.354000E+1	8.157000E-1	5.010000E+3	2.402604E+2
2.343325E-4	-7.304750E-5	1.745000E+1	8.155400E-1	6.310000E+3	2.402586E+2
2.254100E-4	-9.437250E-5	2.287000E+1	8.154000E-1	7.940000E+3	2.402550E+2
2.182450E-4	-1.110350E-4	2.704000E+1	8.151250E-1	1.000000E+4	2.402743E+2
2.043200E-4	-1.289025E-4	3.216000E+1	8.148000E-1	1.260000E+4	2.402606E+2
1.905625E-4	-1.436850E-4	3.696000E+1	8.142000E-1	1.580000E+4	2.402566E+2
1.778200E-4	-1.545650E-4	4.101000E+1	8.134000E-1	1.990000E+4	2.402804E+2
1.713325E-4	-1.587800E-4	4.287000E+1	8.130950E-1	2.200000E+4	2.403097E+2
					
Tsp[K]  	Tc[K]   	Ts[K]    	Rs[om]  	Po[mW]    	 Io[mA]
245.0000	245.3324	245.6797	164.9350	  4.1234	  5.0000
					
U3x[V]  	U3y[V]  	Phase[deg]	|U1|[V]  	F[Hz]    	Ts[K]  
2.759100E-4	-9.800000E-6	2.040000E+0	8.232100E-1	6.310000E+0	2.450130E+2
2.742675E-4	-9.590000E-6	2.010000E+0	8.241900E-1	7.940000E+0	2.450249E+2
2.680625E-4	-9.025000E-6	7.900000E-1	8.247000E-1	1.000000E+1	2.452479E+2
2.703725E-4	-9.282500E-6	1.970000E+0	8.250100E-1	1.260000E+1	2.453484E+2
2.693075E-4	-9.012500E-6	1.990000E+0	8.250100E-1	1.580000E+1	2.452760E+2
2.680900E-4	-8.385000E-6	1.870000E+0	8.251000E-1	1.990000E+1	2.452785E+2
2.668800E-4	-8.277500E-6	1.720000E+0	8.252750E-1	2.510000E+1	2.453555E+2
2.658125E-4	-8.417500E-6	1.800000E+0	8.253000E-1	3.160000E+1	2.453103E+2
2.646925E-4	-8.405000E-6	1.850000E+0	8.253050E-1	3.980000E+1	2.453104E+2
2.632775E-4	-8.930000E-6	1.990000E+0	8.268000E-1	5.010000E+1	2.453067E+2
2.626550E-4	-8.862500E-6	1.940000E+0	8.255050E-1	6.310000E+1	2.453732E+2
2.613800E-4	-9.175000E-6	1.980000E+0	8.255100E-1	7.940000E+1	2.453625E+2
2.594250E-4	-9.535000E-6	2.100000E+0	8.256600E-1	1.000000E+2	2.453623E+2
2.583950E-4	-9.990000E-6	2.200000E+0	8.256000E-1	1.260000E+2	2.453566E+2
2.570550E-4	-1.047750E-5	2.370000E+0	8.256000E-1	1.580000E+2	2.453620E+2
2.556025E-4	-1.092000E-5	2.450000E+0	8.256750E-1	1.990000E+2	2.453669E+2
2.546225E-4	-1.137000E-5	2.530000E+0	8.257000E-1	2.510000E+2	2.453612E+2
2.533075E-4	-1.202750E-5	2.740000E+0	8.257800E-1	3.160000E+2	2.453820E+2
2.516175E-4	-1.307000E-5	3.010000E+0	8.258150E-1	3.980000E+2	2.453743E+2
2.499625E-4	-1.414250E-5	3.260000E+0	8.259000E-1	5.010000E+2	2.453763E+2
2.486575E-4	-1.543000E-5	3.620000E+0	8.260850E-1	6.310000E+2	2.453969E+2
2.472725E-4	-1.699250E-5	3.930000E+0	8.261000E-1	7.940000E+2	2.453847E+2
2.458200E-4	-1.899750E-5	4.560000E+0	8.262050E-1	1.000000E+3	2.453841E+2
2.446275E-4	-2.174500E-5	5.100000E+0	8.263000E-1	1.260000E+3	2.453892E+2
2.429925E-4	-2.564500E-5	5.960000E+0	8.264900E-1	1.580000E+3	2.453840E+2
2.403425E-4	-3.009000E-5	7.050000E+0	8.265000E-1	1.990000E+3	2.453984E+2
2.402550E-4	-3.360750E-5	7.940000E+0	8.265000E-1	2.510000E+3	2.453986E+2
2.386450E-4	-3.847500E-5	9.200000E+0	8.267000E-1	3.160000E+3	2.454262E+2
2.378675E-4	-4.590500E-5	1.083000E+1	8.266000E-1	3.980000E+3	2.454238E+2
2.380700E-4	-5.783750E-5	1.344000E+1	8.266000E-1	5.010000E+3	2.454395E+2
2.359625E-4	-7.444000E-5	1.765000E+1	8.265000E-1	6.310000E+3	2.454534E+2
2.266000E-4	-9.682000E-5	2.294000E+1	8.263350E-1	7.940000E+3	2.454544E+2
2.221575E-4	-1.100125E-4	2.629000E+1	8.261450E-1	1.000000E+4	2.454486E+2
2.047375E-4	-1.303575E-4	3.233000E+1	8.257000E-1	1.260000E+4	2.454709E+2
1.900675E-4	-1.453175E-4	3.745000E+1	8.250000E-1	1.580000E+4	2.454654E+2
1.775750E-4	-1.556350E-4	4.124000E+1	8.239000E-1	1.990000E+4	2.454752E+2
1.728200E-4	-1.573375E-4	4.241000E+1	8.234000E-1	2.200000E+4	2.454675E+2
					
Tsp[K]  	Tc[K]   	Ts[K]    	Rs[om]  	Po[mW]    	 Io[mA]
250.0000	250.7507	250.9088	167.1570	  4.1789	  5.0000
					
U3x[V]  	U3y[V]  	Phase[deg]	|U1|[V]  	F[Hz]    	Ts[K]  
2.800200E-4	-1.015750E-5	2.090000E+0	8.344700E-1	6.310000E+0	2.508092E+2
2.779725E-4	-1.010000E-5	2.080000E+0	8.347000E-1	7.940000E+0	2.507341E+2
2.819150E-4	-7.612500E-6	1.370000E+0	8.346000E-1	1.000000E+1	2.506697E+2
2.747550E-4	-9.540000E-6	2.010000E+0	8.345000E-1	1.260000E+1	2.504856E+2
2.724950E-4	-9.042500E-6	2.020000E+0	8.344400E-1	1.580000E+1	2.504478E+2
2.720300E-4	-8.450000E-6	1.760000E+0	8.343000E-1	1.990000E+1	2.503491E+2
2.709225E-4	-8.672500E-6	1.720000E+0	8.343000E-1	2.510000E+1	2.502956E+2
2.698375E-4	-8.755000E-6	1.870000E+0	8.341450E-1	3.160000E+1	2.502150E+2
2.686875E-4	-8.727500E-6	1.860000E+0	8.341050E-1	3.980000E+1	2.502218E+2
2.652250E-4	-5.800000E-6	-1.500000E-1	8.387200E-1	5.010000E+1	2.501879E+2
2.663600E-4	-9.222500E-6	1.990000E+0	8.341000E-1	6.310000E+1	2.501935E+2
2.651150E-4	-9.585000E-6	2.070000E+0	8.341300E-1	7.940000E+1	2.502063E+2
2.637500E-4	-9.847500E-6	2.090000E+0	8.341850E-1	1.000000E+2	2.502290E+2
2.613600E-4	-1.027750E-5	2.270000E+0	8.342000E-1	1.260000E+2	2.502496E+2
2.599200E-4	-1.079250E-5	2.400000E+0	8.342600E-1	1.580000E+2	2.502654E+2
2.586100E-4	-1.122750E-5	2.470000E+0	8.342550E-1	1.990000E+2	2.502735E+2
2.568925E-4	-1.196250E-5	2.670000E+0	8.343550E-1	2.510000E+2	2.502902E+2
2.554275E-4	-1.259250E-5	2.820000E+0	8.344000E-1	3.160000E+2	2.502946E+2
2.543775E-4	-1.329250E-5	2.990000E+0	8.345000E-1	3.980000E+2	2.503074E+2
2.527850E-4	-1.447250E-5	3.300000E+0	8.345000E-1	5.010000E+2	2.503199E+2
2.513050E-4	-1.593250E-5	3.680000E+0	8.346350E-1	6.310000E+2	2.503022E+2
2.496950E-4	-1.749250E-5	4.020000E+0	8.347800E-1	7.940000E+2	2.503118E+2
2.481750E-4	-1.980500E-5	4.450000E+0	8.348000E-1	1.000000E+3	2.503379E+2
2.469425E-4	-2.245500E-5	5.210000E+0	8.349000E-1	1.260000E+3	2.503585E+2
2.452325E-4	-2.613000E-5	6.110000E+0	8.350700E-1	1.580000E+3	2.503850E+2
2.426625E-4	-3.100250E-5	7.380000E+0	8.351000E-1	1.990000E+3	2.503946E+2
2.418300E-4	-3.396500E-5	7.800000E+0	8.351000E-1	2.510000E+3	2.504096E+2
2.403650E-4	-3.878500E-5	9.070000E+0	8.353000E-1	3.160000E+3	2.504653E+2
2.395100E-4	-4.602250E-5	1.085000E+1	8.353000E-1	3.980000E+3	2.505356E+2
2.400975E-4	-5.889000E-5	1.362000E+1	8.353100E-1	5.010000E+3	2.505959E+2
2.372475E-4	-7.577750E-5	1.763000E+1	8.353000E-1	6.310000E+3	2.506655E+2
2.280850E-4	-9.828500E-5	2.334000E+1	8.351000E-1	7.940000E+3	2.506884E+2
2.249575E-4	-1.173575E-4	2.749000E+1	8.349350E-1	1.000000E+4	2.507354E+2
2.040850E-4	-1.312925E-4	3.274000E+1	8.346000E-1	1.260000E+4	2.508049E+2
1.916025E-4	-1.481300E-4	3.769000E+1	8.340000E-1	1.580000E+4	2.508892E+2
1.773225E-4	-1.564400E-4	4.140000E+1	8.329300E-1	1.990000E+4	2.509134E+2
1.669000E-4	-1.591775E-4	4.363000E+1	8.324000E-1	2.200000E+4	2.509523E+2
					
Tsp[K]  	Tc[K]   	Ts[K]    	Rs[om]  	Po[mW]    	 Io[mA]
255.0000	257.8459	257.7880	169.5390	  4.2385	  5.0000
					
U3x[V]  	U3y[V]  	Phase[deg]	|U1|[V]  	F[Hz]    	Ts[K]  
2.846475E-4	-1.057250E-5	2.130000E+0	8.463450E-1	6.310000E+0	2.579150E+2
2.828325E-4	-1.050000E-5	2.110000E+0	8.466000E-1	7.940000E+0	2.580054E+2
2.816350E-4	-1.842250E-5	3.680000E+0	8.467750E-1	1.000000E+1	2.580760E+2
2.798075E-4	-9.750000E-6	2.060000E+0	8.470500E-1	1.260000E+1	2.582209E+2
2.785275E-4	-9.720000E-6	1.720000E+0	8.473650E-1	1.580000E+1	2.583992E+2
2.772275E-4	-9.272500E-6	1.870000E+0	8.477000E-1	1.990000E+1	2.585907E+2
2.748700E-4	-9.412500E-6	1.680000E+0	8.479700E-1	2.510000E+1	2.587471E+2
2.739250E-4	-9.267500E-6	1.940000E+0	8.483050E-1	3.160000E+1	2.589492E+2
2.728075E-4	-9.447500E-6	1.960000E+0	8.484000E-1	3.980000E+1	2.590085E+2
2.717900E-4	-9.132500E-6	-9.100000E-1	8.507500E-1	5.010000E+1	2.590720E+2
2.703425E-4	-9.905000E-6	2.140000E+0	8.491350E-1	6.310000E+1	2.593985E+2
2.690725E-4	-1.043750E-5	2.260000E+0	8.492300E-1	7.940000E+1	2.595197E+2
2.675150E-4	-1.081250E-5	2.290000E+0	8.493600E-1	1.000000E+2	2.595782E+2
2.661525E-4	-1.113500E-5	2.390000E+0	8.495000E-1	1.260000E+2	2.597057E+2
2.646425E-4	-1.163750E-5	2.540000E+0	8.496000E-1	1.580000E+2	2.597532E+2
2.631575E-4	-1.202250E-5	2.630000E+0	8.497150E-1	1.990000E+2	2.597937E+2
2.612150E-4	-1.281500E-5	2.840000E+0	8.498250E-1	2.510000E+2	2.598423E+2
2.598150E-4	-1.353000E-5	2.990000E+0	8.500000E-1	3.160000E+2	2.598996E+2
2.581825E-4	-1.445000E-5	3.180000E+0	8.501600E-1	3.980000E+2	2.599486E+2
2.567450E-4	-1.539000E-5	3.470000E+0	8.503050E-1	5.010000E+2	2.600032E+2
2.551050E-4	-1.685500E-5	3.750000E+0	8.505000E-1	6.310000E+2	2.600582E+2
2.538125E-4	-1.849750E-5	4.140000E+0	8.507000E-1	7.940000E+2	2.601494E+2
2.524450E-4	-2.093000E-5	4.810000E+0	8.508200E-1	1.000000E+3	2.602400E+2
2.504575E-4	-2.342250E-5	5.330000E+0	8.511050E-1	1.260000E+3	2.603593E+2
2.484300E-4	-2.727750E-5	6.350000E+0	8.513000E-1	1.580000E+3	2.604328E+2
2.456725E-4	-3.195000E-5	7.520000E+0	8.514950E-1	1.990000E+3	2.605226E+2
2.454500E-4	-3.517250E-5	8.200000E+0	8.517000E-1	2.510000E+3	2.606735E+2
2.430900E-4	-4.053500E-5	9.920000E+0	8.521000E-1	3.160000E+3	2.608703E+2
2.430700E-4	-4.779500E-5	1.111000E+1	8.522000E-1	3.980000E+3	2.610224E+2
2.430900E-4	-6.012500E-5	1.387000E+1	8.524350E-1	5.010000E+3	2.612343E+2
2.399975E-4	-7.724250E-5	1.816000E+1	8.526000E-1	6.310000E+3	2.614083E+2
2.295300E-4	-1.000750E-4	2.365000E+1	8.525000E-1	7.940000E+3	2.615314E+2
2.215100E-4	-1.177725E-4	2.835000E+1	8.524650E-1	1.000000E+4	2.616786E+2
2.064525E-4	-1.343250E-4	3.293000E+1	8.523000E-1	1.260000E+4	2.618484E+2
1.920975E-4	-1.473875E-4	3.748000E+1	8.518000E-1	1.580000E+4	2.620143E+2
1.795375E-4	-1.578225E-4	4.126000E+1	8.508000E-1	1.990000E+4	2.620768E+2
1.672225E-4	-1.518550E-4	4.220000E+1	8.503000E-1	2.200000E+4	2.621350E+2
					
Tsp[K]  	Tc[K]   	Ts[K]    	Rs[om]  	Po[mW]    	 Io[mA]
260.0000	259.7657	259.0456	170.0110	  4.2503	  5.0000
					
U3x[V]  	U3y[V]  	Phase[deg]	|U1|[V]  	F[Hz]    	Ts[K]  
2.858000E-4	-1.022250E-5	2.050000E+0	8.483000E-1	6.310000E+0	2.589177E+2
2.828200E-4	-1.005250E-5	2.030000E+0	8.486450E-1	7.940000E+0	2.591040E+2
2.744000E-4	-1.597250E-5	3.830000E+0	8.487500E-1	1.000000E+1	2.591387E+2
2.794825E-4	-9.650000E-6	1.980000E+0	8.488600E-1	1.260000E+1	2.590888E+2
2.789425E-4	-9.325000E-6	1.940000E+0	8.488900E-1	1.580000E+1	2.591171E+2
2.777875E-4	-9.332500E-6	1.950000E+0	8.489350E-1	1.990000E+1	2.591099E+2
2.764975E-4	-9.310000E-6	1.820000E+0	8.489400E-1	2.510000E+1	2.591281E+2
2.753075E-4	-9.325000E-6	1.940000E+0	8.490000E-1	3.160000E+1	2.591232E+2
2.741100E-4	-9.452500E-6	1.960000E+0	8.490000E-1	3.980000E+1	2.591213E+2
2.689275E-4	-7.285000E-6	5.600000E-1	8.461650E-1	5.010000E+1	2.591335E+2
2.704800E-4	-9.972500E-6	2.070000E+0	8.490300E-1	6.310000E+1	2.591510E+2
2.689725E-4	-1.031750E-5	2.190000E+0	8.490800E-1	7.940000E+1	2.591573E+2
2.675350E-4	-1.078250E-5	2.290000E+0	8.490950E-1	1.000000E+2	2.591634E+2
2.660200E-4	-1.102500E-5	2.390000E+0	8.491000E-1	1.260000E+2	2.591580E+2
2.645750E-4	-1.148500E-5	2.520000E+0	8.490950E-1	1.580000E+2	2.591657E+2
2.627675E-4	-1.197750E-5	2.610000E+0	8.491000E-1	1.990000E+2	2.591483E+2
2.612375E-4	-1.263500E-5	2.790000E+0	8.491500E-1	2.510000E+2	2.591564E+2
2.596450E-4	-1.330500E-5	2.950000E+0	8.492000E-1	3.160000E+2	2.591574E+2
2.585800E-4	-1.397500E-5	3.130000E+0	8.492850E-1	3.980000E+2	2.591631E+2
2.566700E-4	-1.515000E-5	3.380000E+0	8.493000E-1	5.010000E+2	2.591482E+2
2.550850E-4	-1.664250E-5	3.670000E+0	8.494000E-1	6.310000E+2	2.591730E+2
2.535575E-4	-1.828250E-5	4.140000E+0	8.494900E-1	7.940000E+2	2.591711E+2
2.519375E-4	-2.057750E-5	4.630000E+0	8.495400E-1	1.000000E+3	2.591708E+2
2.505550E-4	-2.317750E-5	5.290000E+0	8.496000E-1	1.260000E+3	2.591787E+2
2.486800E-4	-2.704250E-5	6.230000E+0	8.497000E-1	1.580000E+3	2.591700E+2
2.462725E-4	-3.202500E-5	7.370000E+0	8.497000E-1	1.990000E+3	2.591735E+2
2.452875E-4	-3.473500E-5	8.110000E+0	8.497000E-1	2.510000E+3	2.591860E+2
2.429750E-4	-3.980000E-5	9.780000E+0	8.498000E-1	3.160000E+3	2.591877E+2
2.433275E-4	-4.713000E-5	1.082000E+1	8.496150E-1	3.980000E+3	2.592106E+2
2.433550E-4	-6.004000E-5	1.383000E+1	8.496000E-1	5.010000E+3	2.592226E+2
2.404800E-4	-7.692000E-5	1.769000E+1	8.494950E-1	6.310000E+3	2.592198E+2
2.307100E-4	-9.972500E-5	2.320000E+1	8.492200E-1	7.940000E+3	2.592284E+2
2.242350E-4	-1.166325E-4	2.766000E+1	8.489700E-1	1.000000E+4	2.592266E+2
2.062700E-4	-1.326400E-4	3.272000E+1	8.485000E-1	1.260000E+4	2.592311E+2
1.914650E-4	-1.474950E-4	3.761000E+1	8.477000E-1	1.580000E+4	2.592442E+2
1.779025E-4	-1.565250E-4	4.137000E+1	8.466000E-1	1.990000E+4	2.592415E+2
1.690950E-4	-1.494625E-4	4.136000E+1	8.460000E-1	2.200000E+4	2.592549E+2
					
Tsp[K]  	Tc[K]   	Ts[K]    	Rs[om]  	Po[mW]    	 Io[mA]
265.0000	264.9757	264.3254	171.6500	  4.2912	  5.0000
					
U3x[V]  	U3y[V]  	Phase[deg]	|U1|[V]  	F[Hz]    	Ts[K]  
2.888250E-4	-1.055250E-5	2.100000E+0	8.561500E-1	6.310000E+0	2.638144E+2
2.868975E-4	-1.059250E-5	2.120000E+0	8.565000E-1	7.940000E+0	2.641290E+2
2.782775E-4	-6.895000E-6	1.500000E+0	8.564950E-1	1.000000E+1	2.641678E+2
2.833100E-4	-1.002750E-5	2.020000E+0	8.563500E-1	1.260000E+1	2.640321E+2
2.819400E-4	-9.070000E-6	1.940000E+0	8.564250E-1	1.580000E+1	2.640747E+2
2.804350E-4	-9.580000E-6	1.960000E+0	8.563650E-1	1.990000E+1	2.640979E+2
2.792050E-4	-9.422500E-6	1.980000E+0	8.563200E-1	2.510000E+1	2.640888E+2
2.779700E-4	-9.740000E-6	2.010000E+0	8.563600E-1	3.160000E+1	2.641024E+2
2.766925E-4	-9.812500E-6	2.010000E+0	8.563100E-1	3.980000E+1	2.641181E+2
2.758325E-4	-9.792500E-6	4.670000E+0	8.555700E-1	5.010000E+1	2.641160E+2
2.729375E-4	-1.031000E-5	2.170000E+0	8.562850E-1	6.310000E+1	2.641375E+2
2.724675E-4	-1.069750E-5	2.240000E+0	8.562400E-1	7.940000E+1	2.641272E+2
2.707500E-4	-1.092000E-5	2.290000E+0	8.561950E-1	1.000000E+2	2.641312E+2
2.683225E-4	-1.141500E-5	2.440000E+0	8.562050E-1	1.260000E+2	2.641279E+2
2.667275E-4	-1.188000E-5	2.540000E+0	8.562350E-1	1.580000E+2	2.641383E+2
2.651300E-4	-1.229250E-5	2.670000E+0	8.562650E-1	1.990000E+2	2.641277E+2
2.632725E-4	-1.304750E-5	2.840000E+0	8.562950E-1	2.510000E+2	2.641528E+2
2.616625E-4	-1.372000E-5	3.030000E+0	8.563250E-1	3.160000E+2	2.641392E+2
2.603975E-4	-1.443750E-5	3.200000E+0	8.564000E-1	3.980000E+2	2.641549E+2
2.584300E-4	-1.561500E-5	3.460000E+0	8.564000E-1	5.010000E+2	2.641461E+2
2.568925E-4	-1.716250E-5	3.820000E+0	8.565000E-1	6.310000E+2	2.641499E+2
2.551400E-4	-1.874000E-5	4.210000E+0	8.566000E-1	7.940000E+2	2.641790E+2
2.534875E-4	-2.130250E-5	4.730000E+0	8.566100E-1	1.000000E+3	2.641568E+2
2.521250E-4	-2.400750E-5	5.340000E+0	8.567000E-1	1.260000E+3	2.641889E+2
2.503100E-4	-2.771250E-5	6.380000E+0	8.568000E-1	1.580000E+3	2.641818E+2
2.474475E-4	-3.315750E-5	7.720000E+0	8.568000E-1	1.990000E+3	2.641786E+2
2.456825E-4	-3.558500E-5	8.330000E+0	8.568000E-1	2.510000E+3	2.641855E+2
2.441700E-4	-4.110500E-5	9.310000E+0	8.568000E-1	3.160000E+3	2.641972E+2
2.442200E-4	-4.803750E-5	1.133000E+1	8.566300E-1	3.980000E+3	2.642044E+2
2.443750E-4	-6.109750E-5	1.416000E+1	8.566000E-1	5.010000E+3	2.641959E+2
2.411100E-4	-7.893750E-5	1.818000E+1	8.564000E-1	6.310000E+3	2.642113E+2
2.304325E-4	-1.017975E-4	2.374000E+1	8.562000E-1	7.940000E+3	2.642187E+2
2.209125E-4	-1.144100E-4	2.751000E+1	8.559100E-1	1.000000E+4	2.642154E+2
2.064825E-4	-1.351475E-4	3.319000E+1	8.554000E-1	1.260000E+4	2.642331E+2
1.921000E-4	-1.497500E-4	3.794000E+1	8.547000E-1	1.580000E+4	2.642355E+2
1.774700E-4	-1.567575E-4	4.154000E+1	8.535000E-1	1.990000E+4	2.642478E+2
1.799850E-4	-1.543400E-4	4.050000E+1	8.529000E-1	2.200000E+4	2.642593E+2
					
Tsp[K]  	Tc[K]   	Ts[K]    	Rs[om]  	Po[mW]    	 Io[mA]
270.0000	270.4345	269.4647	173.2230	  4.3306	  5.0000
					
U3x[V]  	U3y[V]  	Phase[deg]	|U1|[V]  	F[Hz]    	Ts[K]  
2.904525E-4	-1.087250E-5	2.140000E+0	8.630000E-1	6.310000E+0	2.686598E+2
2.887400E-4	-1.070250E-5	2.130000E+0	8.634000E-1	7.940000E+0	2.687021E+2
2.887400E-4	-3.060000E-6	-2.400000E-1	8.638550E-1	1.000000E+1	2.689424E+2
2.853125E-4	-1.020000E-5	2.040000E+0	8.639300E-1	1.260000E+1	2.690700E+2
2.836875E-4	-1.003250E-5	2.030000E+0	8.637650E-1	1.580000E+1	2.690283E+2
2.824450E-4	-9.767500E-6	1.960000E+0	8.637300E-1	1.990000E+1	2.689280E+2
2.810600E-4	-9.767500E-6	1.910000E+0	8.638000E-1	2.510000E+1	2.689650E+2
2.797850E-4	-9.882500E-6	2.030000E+0	8.638000E-1	3.160000E+1	2.690168E+2
2.782250E-4	-9.957500E-6	2.080000E+0	8.635150E-1	3.980000E+1	2.689906E+2
2.768400E-4	-1.018000E-5	2.150000E+0	8.632300E-1	5.010000E+1	2.689831E+2
2.756725E-4	-1.054500E-5	2.190000E+0	8.637450E-1	6.310000E+1	2.690228E+2
2.740475E-4	-1.081000E-5	2.260000E+0	8.636950E-1	7.940000E+1	2.690144E+2
2.731775E-4	-1.162250E-5	2.450000E+0	8.637250E-1	1.000000E+2	2.690221E+2
2.715725E-4	-1.174750E-5	2.480000E+0	8.637150E-1	1.260000E+2	2.690204E+2
2.689850E-4	-1.233500E-5	2.620000E+0	8.637000E-1	1.580000E+2	2.690232E+2
2.673125E-4	-1.267000E-5	2.730000E+0	8.637750E-1	1.990000E+2	2.690328E+2
2.654325E-4	-1.350750E-5	2.900000E+0	8.638050E-1	2.510000E+2	2.690252E+2
2.638325E-4	-1.417750E-5	3.070000E+0	8.638950E-1	3.160000E+2	2.690447E+2
2.624725E-4	-1.483250E-5	3.210000E+0	8.639000E-1	3.980000E+2	2.690330E+2
2.605425E-4	-1.611750E-5	3.550000E+0	8.639450E-1	5.010000E+2	2.690393E+2
2.587850E-4	-1.761750E-5	3.950000E+0	8.640700E-1	6.310000E+2	2.690367E+2
2.572600E-4	-1.926000E-5	4.260000E+0	8.641000E-1	7.940000E+2	2.690438E+2
2.553425E-4	-2.166750E-5	4.930000E+0	8.641900E-1	1.000000E+3	2.690568E+2
2.539275E-4	-2.446500E-5	5.460000E+0	8.642000E-1	1.260000E+3	2.690606E+2
2.521800E-4	-2.853250E-5	6.480000E+0	8.643100E-1	1.580000E+3	2.690662E+2
2.491425E-4	-3.373750E-5	7.790000E+0	8.643000E-1	1.990000E+3	2.690751E+2
2.478775E-4	-3.606250E-5	8.240000E+0	8.643000E-1	2.510000E+3	2.690752E+2
2.459250E-4	-4.165000E-5	9.510000E+0	8.644000E-1	3.160000E+3	2.690889E+2
2.453575E-4	-4.967750E-5	1.130000E+1	8.642000E-1	3.980000E+3	2.690937E+2
2.465100E-4	-6.232750E-5	1.438000E+1	8.642000E-1	5.010000E+3	2.690816E+2
2.420125E-4	-8.059000E-5	1.857000E+1	8.640000E-1	6.310000E+3	2.691093E+2
2.305625E-4	-1.038025E-4	2.458000E+1	8.637800E-1	7.940000E+3	2.691216E+2
2.280375E-4	-1.216875E-4	2.796000E+1	8.633900E-1	1.000000E+4	2.691124E+2
2.067625E-4	-1.371625E-4	3.377000E+1	8.630000E-1	1.260000E+4	2.691261E+2
1.910150E-4	-1.501625E-4	3.821000E+1	8.622000E-1	1.580000E+4	2.691089E+2
1.771425E-4	-1.594575E-4	4.200000E+1	8.610100E-1	1.990000E+4	2.691313E+2
1.681625E-4	-1.631750E-4	4.412000E+1	8.604000E-1	2.200000E+4	2.691421E+2
					
Tsp[K]  	Tc[K]   	Ts[K]    	Rs[om]  	Po[mW]    	 Io[mA]
275.0000	275.7200	274.7947	174.8880	  4.3722	  5.0000
					
U3x[V]  	U3y[V]  	Phase[deg]	|U1|[V]  	F[Hz]    	Ts[K]  
2.939275E-4	-1.110250E-5	2.160000E+0	8.715000E-1	6.310000E+0	2.742838E+2
2.916125E-4	-1.104000E-5	2.170000E+0	8.713000E-1	7.940000E+0	2.740582E+2
2.880975E-4	-6.132500E-6	1.330000E+0	8.712000E-1	1.000000E+1	2.738897E+2
2.883750E-4	-1.064000E-5	2.120000E+0	8.716600E-1	1.260000E+1	2.740587E+2
2.870525E-4	-1.023750E-5	2.050000E+0	8.717100E-1	1.580000E+1	2.741717E+2
2.854950E-4	-1.015750E-5	2.080000E+0	8.717550E-1	1.990000E+1	2.741920E+2
2.840875E-4	-1.006750E-5	2.050000E+0	8.716250E-1	2.510000E+1	2.741252E+2
2.827525E-4	-1.034000E-5	2.080000E+0	8.717000E-1	3.160000E+1	2.740940E+2
2.813475E-4	-1.036000E-5	2.110000E+0	8.717200E-1	3.980000E+1	2.741515E+2
2.801825E-4	-1.050750E-5	2.280000E+0	8.719900E-1	5.010000E+1	2.741876E+2
2.783900E-4	-1.093500E-5	2.260000E+0	8.716350E-1	6.310000E+1	2.741442E+2
2.767950E-4	-1.115000E-5	2.320000E+0	8.716700E-1	7.940000E+1	2.741794E+2
2.756650E-4	-1.173250E-5	2.450000E+0	8.718300E-1	1.000000E+2	2.741989E+2
2.741350E-4	-1.211000E-5	2.540000E+0	8.717000E-1	1.260000E+2	2.741926E+2
2.715425E-4	-1.268250E-5	2.680000E+0	8.717000E-1	1.580000E+2	2.741983E+2
2.698600E-4	-1.306250E-5	2.770000E+0	8.717150E-1	1.990000E+2	2.741901E+2
2.677800E-4	-1.386750E-5	3.010000E+0	8.717300E-1	2.510000E+2	2.741691E+2
2.662025E-4	-1.461000E-5	3.130000E+0	8.718000E-1	3.160000E+2	2.741847E+2
2.648625E-4	-1.529750E-5	3.320000E+0	8.718000E-1	3.980000E+2	2.741832E+2
2.628075E-4	-1.666000E-5	3.710000E+0	8.718900E-1	5.010000E+2	2.741749E+2
2.611550E-4	-1.834250E-5	3.980000E+0	8.720000E-1	6.310000E+2	2.741937E+2
2.593625E-4	-1.988250E-5	4.400000E+0	8.721000E-1	7.940000E+2	2.741898E+2
2.578350E-4	-2.240500E-5	4.840000E+0	8.721200E-1	1.000000E+3	2.741894E+2
2.560625E-4	-2.511250E-5	5.620000E+0	8.722000E-1	1.260000E+3	2.742130E+2
2.543150E-4	-2.908250E-5	6.640000E+0	8.723000E-1	1.580000E+3	2.741968E+2
2.514050E-4	-3.458250E-5	7.870000E+0	8.723000E-1	1.990000E+3	2.741999E+2
2.491175E-4	-3.745000E-5	8.440000E+0	8.723000E-1	2.510000E+3	2.741989E+2
2.478125E-4	-4.295250E-5	9.450000E+0	8.723150E-1	3.160000E+3	2.742099E+2
2.472400E-4	-5.041000E-5	1.154000E+1	8.722000E-1	3.980000E+3	2.742163E+2
2.474825E-4	-6.385000E-5	1.435000E+1	8.721000E-1	5.010000E+3	2.742201E+2
2.436125E-4	-8.160250E-5	1.848000E+1	8.720000E-1	6.310000E+3	2.742256E+2
2.319450E-4	-1.053475E-4	2.435000E+1	8.717000E-1	7.940000E+3	2.742366E+2
2.342550E-4	-1.161650E-4	2.647000E+1	8.714750E-1	1.000000E+4	2.742338E+2
2.067250E-4	-1.381300E-4	3.386000E+1	8.709000E-1	1.260000E+4	2.742337E+2
1.917575E-4	-1.543575E-4	3.886000E+1	8.701250E-1	1.580000E+4	2.742595E+2
1.763475E-4	-1.592775E-4	4.208000E+1	8.690000E-1	1.990000E+4	2.742508E+2
1.801700E-4	-1.584600E-4	4.136000E+1	8.684000E-1	2.200000E+4	2.742389E+2
					
Tsp[K]  	Tc[K]   	Ts[K]    	Rs[om]  	Po[mW]    	 Io[mA]
280.0000	280.8961	279.8784	176.5360	  4.4134	  5.0000
					
U3x[V]  	U3y[V]  	Phase[deg]	|U1|[V]  	F[Hz]    	Ts[K]  
2.977025E-4	-1.151250E-5	2.220000E+0	8.802000E-1	6.310000E+0	2.796105E+2
2.953050E-4	-1.139750E-5	2.210000E+0	8.801000E-1	7.940000E+0	2.794732E+2
2.877975E-4	-7.892500E-6	1.680000E+0	8.799650E-1	1.000000E+1	2.793620E+2
2.914800E-4	-1.075500E-5	2.130000E+0	8.798250E-1	1.260000E+1	2.792090E+2
2.897650E-4	-1.057500E-5	2.010000E+0	8.796750E-1	1.580000E+1	2.791387E+2
2.882425E-4	-1.023000E-5	2.050000E+0	8.795000E-1	1.990000E+1	2.789592E+2
2.872025E-4	-1.041000E-5	1.970000E+0	8.796150E-1	2.510000E+1	2.789995E+2
2.857775E-4	-1.063750E-5	2.130000E+0	8.799000E-1	3.160000E+1	2.792067E+2
2.842575E-4	-1.082000E-5	2.170000E+0	8.798900E-1	3.980000E+1	2.792191E+2
2.901575E-4	-1.313000E-5	5.920000E+0	8.798450E-1	5.010000E+1	2.791936E+2
2.810400E-4	-1.130000E-5	2.320000E+0	8.796850E-1	6.310000E+1	2.790794E+2
2.792875E-4	-1.158250E-5	2.380000E+0	8.797000E-1	7.940000E+1	2.791219E+2
2.785225E-4	-1.232750E-5	2.520000E+0	8.797200E-1	1.000000E+2	2.791471E+2
2.758650E-4	-1.272000E-5	2.650000E+0	8.798000E-1	1.260000E+2	2.791778E+2
2.740475E-4	-1.307750E-5	2.760000E+0	8.798000E-1	1.580000E+2	2.791818E+2
2.721500E-4	-1.370500E-5	2.900000E+0	8.798350E-1	1.990000E+2	2.791710E+2
2.703700E-4	-1.430250E-5	3.000000E+0	8.798750E-1	2.510000E+2	2.791723E+2
2.686325E-4	-1.503000E-5	3.200000E+0	8.799000E-1	3.160000E+2	2.791658E+2
2.667850E-4	-1.605000E-5	3.430000E+0	8.799100E-1	3.980000E+2	2.791468E+2
2.651375E-4	-1.710500E-5	3.740000E+0	8.799950E-1	5.010000E+2	2.791381E+2
2.632100E-4	-1.869000E-5	3.970000E+0	8.800350E-1	6.310000E+2	2.791399E+2
2.614700E-4	-2.034000E-5	4.400000E+0	8.801000E-1	7.940000E+2	2.791272E+2
2.594825E-4	-2.255000E-5	5.080000E+0	8.802000E-1	1.000000E+3	2.791325E+2
2.580525E-4	-2.574500E-5	5.670000E+0	8.803000E-1	1.260000E+3	2.791715E+2
2.561200E-4	-2.965000E-5	6.550000E+0	8.803950E-1	1.580000E+3	2.791786E+2
2.533050E-4	-3.497250E-5	7.930000E+0	8.804000E-1	1.990000E+3	2.791752E+2
2.508550E-4	-3.808500E-5	8.690000E+0	8.804000E-1	2.510000E+3	2.791769E+2
2.494850E-4	-4.364000E-5	9.720000E+0	8.804050E-1	3.160000E+3	2.791660E+2
2.495325E-4	-5.112500E-5	1.156000E+1	8.802050E-1	3.980000E+3	2.791716E+2
2.492900E-4	-6.498750E-5	1.447000E+1	8.802000E-1	5.010000E+3	2.791847E+2
2.446600E-4	-8.335500E-5	1.874000E+1	8.800000E-1	6.310000E+3	2.791685E+2
2.326650E-4	-1.067375E-4	2.455000E+1	8.797850E-1	7.940000E+3	2.791889E+2
2.253850E-4	-1.202000E-4	2.799000E+1	8.794250E-1	1.000000E+4	2.791771E+2
2.069650E-4	-1.392800E-4	3.384000E+1	8.789000E-1	1.260000E+4	2.791949E+2
1.927400E-4	-1.527325E-4	3.841000E+1	8.781000E-1	1.580000E+4	2.791858E+2
1.770075E-4	-1.608075E-4	4.226000E+1	8.769000E-1	1.990000E+4	2.791972E+2
1.751125E-4	-1.573275E-4	4.179000E+1	8.763000E-1	2.200000E+4	2.792002E+2
					
Tsp[K]  	Tc[K]   	Ts[K]    	Rs[om]  	Po[mW]    	 Io[mA]
285.0000	285.9850	285.0538	178.1950	  4.4549	  5.0000
					
U3x[V]  	U3y[V]  	Phase[deg]	|U1|[V]  	F[Hz]    	Ts[K]  
3.013325E-4	-1.188250E-5	2.260000E+0	8.886000E-1	6.310000E+0	2.849406E+2
2.989675E-4	-1.172750E-5	2.240000E+0	8.885600E-1	7.940000E+0	2.848461E+2
2.985825E-4	-1.843500E-5	3.590000E+0	8.885000E-1	1.000000E+1	2.847376E+2
2.951350E-4	-1.112750E-5	2.160000E+0	8.882150E-1	1.260000E+1	2.845554E+2
2.933300E-4	-1.090250E-5	2.040000E+0	8.881050E-1	1.580000E+1	2.844943E+2
2.918100E-4	-1.087500E-5	2.160000E+0	8.878750E-1	1.990000E+1	2.843202E+2
2.901050E-4	-1.080750E-5	2.230000E+0	8.878100E-1	2.510000E+1	2.842818E+2
2.886400E-4	-1.102500E-5	2.200000E+0	8.876000E-1	3.160000E+1	2.841258E+2
2.870900E-4	-1.111500E-5	2.210000E+0	8.875800E-1	3.980000E+1	2.841432E+2
2.844725E-4	-1.160750E-5	1.080000E+0	8.889200E-1	5.010000E+1	2.841315E+2
2.839550E-4	-1.177250E-5	2.370000E+0	8.878300E-1	6.310000E+1	2.842983E+2
2.821650E-4	-1.206500E-5	2.460000E+0	8.877850E-1	7.940000E+1	2.843095E+2
2.810650E-4	-1.274750E-5	2.650000E+0	8.876950E-1	1.000000E+2	2.843016E+2
2.785200E-4	-1.310750E-5	2.700000E+0	8.877250E-1	1.260000E+2	2.842634E+2
2.767100E-4	-1.358500E-5	2.810000E+0	8.877000E-1	1.580000E+2	2.842598E+2
2.747700E-4	-1.413500E-5	2.970000E+0	8.877000E-1	1.990000E+2	2.842383E+2
2.728725E-4	-1.486000E-5	3.120000E+0	8.877350E-1	2.510000E+2	2.842219E+2
2.710450E-4	-1.551500E-5	3.300000E+0	8.878000E-1	3.160000E+2	2.842062E+2
2.691525E-4	-1.651750E-5	3.510000E+0	8.878000E-1	3.980000E+2	2.842070E+2
2.672325E-4	-1.781750E-5	3.840000E+0	8.879000E-1	5.010000E+2	2.842121E+2
2.654625E-4	-1.914750E-5	4.090000E+0	8.880000E-1	6.310000E+2	2.842181E+2
2.637650E-4	-2.094750E-5	4.540000E+0	8.881000E-1	7.940000E+2	2.842387E+2
2.620675E-4	-2.347500E-5	4.920000E+0	8.881600E-1	1.000000E+3	2.842595E+2
2.599725E-4	-2.640500E-5	5.840000E+0	8.882550E-1	1.260000E+3	2.842812E+2
2.580800E-4	-3.044000E-5	6.660000E+0	8.883700E-1	1.580000E+3	2.842941E+2
2.550500E-4	-3.582250E-5	8.040000E+0	8.883000E-1	1.990000E+3	2.842873E+2
2.527450E-4	-3.834250E-5	8.440000E+0	8.883000E-1	2.510000E+3	2.842636E+2
2.509925E-4	-4.435750E-5	1.012000E+1	8.883700E-1	3.160000E+3	2.842683E+2
2.513975E-4	-5.231000E-5	1.153000E+1	8.882000E-1	3.980000E+3	2.842732E+2
2.514850E-4	-6.614000E-5	1.481000E+1	8.881900E-1	5.010000E+3	2.842763E+2
2.461900E-4	-8.465000E-5	1.932000E+1	8.879950E-1	6.310000E+3	2.842855E+2
2.337050E-4	-1.083750E-4	2.473000E+1	8.877000E-1	7.940000E+3	2.842841E+2
2.260600E-4	-1.193600E-4	2.782000E+1	8.874600E-1	1.000000E+4	2.842787E+2
2.079300E-4	-1.402050E-4	3.438000E+1	8.868400E-1	1.260000E+4	2.842785E+2
9.292000E-5	-1.275700E-4	5.395000E+1	8.860000E-1	1.580000E+4	2.842770E+2
1.765025E-4	-1.602950E-4	4.225000E+1	8.847000E-1	1.990000E+4	2.842920E+2
1.733125E-4	-1.647050E-4	4.341000E+1	8.841000E-1	2.200000E+4	2.842962E+2
					
Tsp[K]  	Tc[K]   	Ts[K]    	Rs[om]  	Po[mW]    	 Io[mA]
290.0000	290.9962	289.9838	179.7830	  4.4946	  5.0000
					
U3x[V]  	U3y[V]  	Phase[deg]	|U1|[V]  	F[Hz]    	Ts[K]  
3.049400E-4	-1.217500E-5	2.290000E+0	8.967700E-1	6.310000E+0	2.899930E+2
3.026575E-4	-1.201500E-5	2.270000E+0	8.967200E-1	7.940000E+0	2.899412E+2
2.936225E-4	-1.407750E-5	2.500000E+0	8.966700E-1	1.000000E+1	2.898516E+2
2.986325E-4	-1.140250E-5	2.200000E+0	8.964100E-1	1.260000E+1	2.896274E+2
2.968825E-4	-1.126000E-5	2.270000E+0	8.963400E-1	1.580000E+1	2.895747E+2
2.952600E-4	-1.123750E-5	2.190000E+0	8.961150E-1	1.990000E+1	2.894321E+2
2.935875E-4	-1.112000E-5	2.270000E+0	8.960150E-1	2.510000E+1	2.893865E+2
2.919625E-4	-1.142500E-5	2.240000E+0	8.958000E-1	3.160000E+1	2.892463E+2
2.903225E-4	-1.161500E-5	2.310000E+0	8.957000E-1	3.980000E+1	2.892102E+2
2.894425E-4	-1.019750E-5	4.930000E+0	8.950500E-1	5.010000E+1	2.891668E+2
2.868875E-4	-1.220500E-5	2.440000E+0	8.956250E-1	6.310000E+1	2.891806E+2
2.852275E-4	-1.249000E-5	2.500000E+0	8.956900E-1	7.940000E+1	2.892082E+2
2.841225E-4	-1.286750E-5	2.640000E+0	8.957250E-1	1.000000E+2	2.892337E+2
2.813350E-4	-1.359000E-5	2.770000E+0	8.958000E-1	1.260000E+2	2.892638E+2
2.794975E-4	-1.402000E-5	2.850000E+0	8.958000E-1	1.580000E+2	2.892583E+2
2.775075E-4	-1.458000E-5	3.010000E+0	8.958000E-1	1.990000E+2	2.892807E+2
2.755750E-4	-1.535250E-5	3.140000E+0	8.958050E-1	2.510000E+2	2.892589E+2
2.736450E-4	-1.606000E-5	3.360000E+0	8.959000E-1	3.160000E+2	2.892543E+2
2.718575E-4	-1.699000E-5	3.570000E+0	8.959000E-1	3.980000E+2	2.892356E+2
2.698175E-4	-1.826000E-5	3.910000E+0	8.959000E-1	5.010000E+2	2.892138E+2
2.680075E-4	-1.950250E-5	4.080000E+0	8.960000E-1	6.310000E+2	2.891895E+2
2.660575E-4	-2.148250E-5	4.650000E+0	8.960450E-1	7.940000E+2	2.891805E+2
2.640025E-4	-2.373500E-5	5.250000E+0	8.961000E-1	1.000000E+3	2.891769E+2
2.622075E-4	-2.692500E-5	5.770000E+0	8.961900E-1	1.260000E+3	2.892102E+2
2.602325E-4	-3.111750E-5	6.800000E+0	8.963000E-1	1.580000E+3	2.892260E+2
2.575350E-4	-3.683500E-5	8.140000E+0	8.963000E-1	1.990000E+3	2.892398E+2
2.545825E-4	-3.913500E-5	8.660000E+0	8.963000E-1	2.510000E+3	2.892521E+2
2.534250E-4	-4.532500E-5	1.011000E+1	8.963550E-1	3.160000E+3	2.892292E+2
2.534000E-4	-5.353500E-5	1.177000E+1	8.961000E-1	3.980000E+3	2.892121E+2
2.527600E-4	-6.693250E-5	1.455000E+1	8.961000E-1	5.010000E+3	2.892206E+2
2.477475E-4	-8.644000E-5	1.930000E+1	8.959000E-1	6.310000E+3	2.892388E+2
2.313775E-4	-1.051700E-4	2.442000E+1	8.956650E-1	7.940000E+3	2.892378E+2
2.249050E-4	-1.206650E-4	2.836000E+1	8.952700E-1	1.000000E+4	2.892366E+2
2.081400E-4	-1.416025E-4	3.438000E+1	8.947800E-1	1.260000E+4	2.892342E+2
1.929300E-4	-1.581050E-4	3.938000E+1	8.939000E-1	1.580000E+4	2.892429E+2
1.763000E-4	-1.615625E-4	4.253000E+1	8.927000E-1	1.990000E+4	2.892399E+2
1.695800E-4	-1.628400E-4	4.360000E+1	8.920000E-1	2.200000E+4	2.892335E+2
					
Tsp[K]  	Tc[K]   	Ts[K]    	Rs[om]  	Po[mW]    	 Io[mA]
295.0000	295.9765	295.0656	181.4500	  4.5362	  5.0000
					
U3x[V]  	U3y[V]  	Phase[deg]	|U1|[V]  	F[Hz]    	Ts[K]  
3.084300E-4	-1.250500E-5	2.330000E+0	9.046100E-1	6.310000E+0	2.950468E+2
3.061275E-4	-1.234750E-5	2.310000E+0	9.046000E-1	7.940000E+0	2.949866E+2
3.048000E-4	-5.720000E-6	1.130000E+0	9.045000E-1	1.000000E+1	2.948733E+2
3.021225E-4	-1.179750E-5	2.250000E+0	9.043250E-1	1.260000E+1	2.947163E+2
3.002650E-4	-1.166250E-5	2.150000E+0	9.042750E-1	1.580000E+1	2.946726E+2
2.984000E-4	-1.167750E-5	2.220000E+0	9.040000E-1	1.990000E+1	2.944733E+2
2.967800E-4	-1.146250E-5	2.150000E+0	9.038200E-1	2.510000E+1	2.944096E+2
2.951275E-4	-1.180750E-5	2.310000E+0	9.036000E-1	3.160000E+1	2.942563E+2
2.933875E-4	-1.213000E-5	2.360000E+0	9.035000E-1	3.980000E+1	2.941945E+2
2.918075E-4	-1.246750E-5	2.210000E+0	9.026300E-1	5.010000E+1	2.941687E+2
2.900275E-4	-1.263750E-5	2.520000E+0	9.037400E-1	6.310000E+1	2.942986E+2
2.889550E-4	-1.324250E-5	2.630000E+0	9.037000E-1	7.940000E+1	2.943171E+2
2.870075E-4	-1.346250E-5	2.690000E+0	9.038450E-1	1.000000E+2	2.943174E+2
2.840850E-4	-1.395750E-5	2.810000E+0	9.036950E-1	1.260000E+2	2.943169E+2
2.821950E-4	-1.450000E-5	2.930000E+0	9.036850E-1	1.580000E+2	2.943006E+2
2.800350E-4	-1.508750E-5	3.080000E+0	9.036250E-1	1.990000E+2	2.942864E+2
2.780950E-4	-1.568250E-5	3.220000E+0	9.036900E-1	2.510000E+2	2.942622E+2
2.761900E-4	-1.651500E-5	3.430000E+0	9.036700E-1	3.160000E+2	2.942452E+2
2.742975E-4	-1.746000E-5	3.680000E+0	9.037150E-1	3.980000E+2	2.942251E+2
2.723750E-4	-1.886250E-5	3.950000E+0	9.037950E-1	5.010000E+2	2.942387E+2
2.703375E-4	-2.021250E-5	4.310000E+0	9.039000E-1	6.310000E+2	2.942369E+2
2.684400E-4	-2.202750E-5	4.750000E+0	9.039900E-1	7.940000E+2	2.942288E+2
2.667350E-4	-2.457750E-5	5.200000E+0	9.040050E-1	1.000000E+3	2.942548E+2
2.645075E-4	-2.760000E-5	5.990000E+0	9.041050E-1	1.260000E+3	2.943056E+2
2.623200E-4	-3.197000E-5	6.980000E+0	9.042800E-1	1.580000E+3	2.943077E+2
2.591500E-4	-3.738000E-5	8.190000E+0	9.042950E-1	1.990000E+3	2.943063E+2
2.566000E-4	-4.011750E-5	8.720000E+0	9.042000E-1	2.510000E+3	2.942669E+2
2.548550E-4	-4.640250E-5	1.062000E+1	9.042950E-1	3.160000E+3	2.942558E+2
2.550900E-4	-5.437500E-5	1.221000E+1	9.041000E-1	3.980000E+3	2.942711E+2
2.546600E-4	-6.854500E-5	1.486000E+1	9.040000E-1	5.010000E+3	2.942912E+2
2.490625E-4	-8.738000E-5	1.917000E+1	9.038300E-1	6.310000E+3	2.942923E+2
2.321125E-4	-1.065075E-4	2.482000E+1	9.035750E-1	7.940000E+3	2.942717E+2
2.298725E-4	-1.281525E-4	2.911000E+1	9.030200E-1	1.000000E+4	2.942732E+2
2.092500E-4	-1.426575E-4	3.428000E+1	9.026750E-1	1.260000E+4	2.942920E+2
1.934150E-4	-1.562025E-4	3.897000E+1	9.018000E-1	1.580000E+4	2.942942E+2
1.763475E-4	-1.623650E-4	4.264000E+1	9.006000E-1	1.990000E+4	2.942925E+2
1.715625E-4	-1.621775E-4	4.339000E+1	8.999000E-1	2.200000E+4	2.942958E+2
					
Tsp[K]  	Tc[K]   	Ts[K]    	Rs[om]  	Po[mW]    	 Io[mA]
300.0000	301.4378	298.5738	182.8525	  4.5713	  5.0000
					
U3x[V]  	U3y[V]  	Phase[deg]	|U1|[V]  	F[Hz]    	Ts[K]  
3.131875E-4	-1.287000E-5	2.360000E+0	9.126850E-1	6.310000E+0	2.999717E+2
3.109150E-4	-1.275250E-5	2.360000E+0	9.126300E-1	7.940000E+0	2.999403E+2
3.045375E-4	-1.605750E-5	3.220000E+0	9.125000E-1	1.000000E+1	2.998349E+2
3.057625E-4	-1.211250E-5	2.240000E+0	9.121550E-1	1.260000E+1	2.995599E+2
3.038450E-4	-1.194750E-5	2.200000E+0	9.119950E-1	1.580000E+1	2.994891E+2
3.019475E-4	-1.200750E-5	2.260000E+0	9.116300E-1	1.990000E+1	2.992447E+2
3.001975E-4	-1.191750E-5	2.220000E+0	9.114750E-1	2.510000E+1	2.991867E+2
2.986050E-4	-1.225750E-5	2.370000E+0	9.114000E-1	3.160000E+1	2.990641E+2
2.968150E-4	-1.249250E-5	2.410000E+0	9.114200E-1	3.980000E+1	2.990974E+2
2.956200E-4	-1.321500E-5	4.620000E+0	9.126350E-1	5.010000E+1	2.991421E+2
2.931700E-4	-1.313250E-5	2.550000E+0	9.114050E-1	6.310000E+1	2.992358E+2
2.911900E-4	-1.339750E-5	2.590000E+0	9.114000E-1	7.940000E+1	2.991597E+2
2.901050E-4	-1.391500E-5	2.750000E+0	9.116100E-1	1.000000E+2	2.991700E+2
2.869925E-4	-1.441750E-5	2.870000E+0	9.115000E-1	1.260000E+2	2.991881E+2
2.850975E-4	-1.495500E-5	3.040000E+0	9.115000E-1	1.580000E+2	2.992002E+2
2.829175E-4	-1.553250E-5	3.150000E+0	9.116000E-1	1.990000E+2	2.992197E+2
2.809475E-4	-1.624000E-5	3.320000E+0	9.116200E-1	2.510000E+2	2.992359E+2
2.789425E-4	-1.693000E-5	3.430000E+0	9.117000E-1	3.160000E+2	2.992240E+2
2.768050E-4	-1.790250E-5	3.690000E+0	9.117000E-1	3.980000E+2	2.992310E+2
2.747375E-4	-1.931750E-5	3.940000E+0	9.117700E-1	5.010000E+2	2.992209E+2
2.727750E-4	-2.077500E-5	4.360000E+0	9.118300E-1	6.310000E+2	2.992135E+2
2.708825E-4	-2.238250E-5	4.730000E+0	9.118950E-1	7.940000E+2	2.991987E+2
2.684600E-4	-2.498000E-5	5.220000E+0	9.118200E-1	1.000000E+3	2.991786E+2
2.665725E-4	-2.818250E-5	6.070000E+0	9.119800E-1	1.260000E+3	2.991893E+2
2.644350E-4	-3.235750E-5	7.040000E+0	9.121000E-1	1.580000E+3	2.992215E+2
2.608725E-4	-3.804500E-5	8.390000E+0	9.121000E-1	1.990000E+3	2.992155E+2
2.597175E-4	-4.027250E-5	8.780000E+0	9.121000E-1	2.510000E+3	2.992164E+2
2.575325E-4	-4.731250E-5	1.016000E+1	9.121000E-1	3.160000E+3	2.991990E+2
2.574250E-4	-5.503750E-5	1.229000E+1	9.119000E-1	3.980000E+3	2.992162E+2
2.569100E-4	-6.942750E-5	1.505000E+1	9.119000E-1	5.010000E+3	2.991977E+2
2.509675E-4	-8.878250E-5	1.925000E+1	9.117000E-1	6.310000E+3	2.992319E+2
2.363875E-4	-1.130175E-4	2.567000E+1	9.114000E-1	7.940000E+3	2.992083E+2
2.314925E-4	-1.234475E-4	2.782000E+1	9.112050E-1	1.000000E+4	2.992201E+2
2.093925E-4	-1.446375E-4	3.477000E+1	9.105000E-1	1.260000E+4	2.992107E+2
1.940400E-4	-1.579625E-4	3.912000E+1	9.096000E-1	1.580000E+4	2.992071E+2
1.763500E-4	-1.644000E-4	4.298000E+1	9.083950E-1	1.990000E+4	2.992171E+2
1.720150E-4	-1.582800E-4	4.268000E+1	9.077000E-1	2.200000E+4	2.992172E+2
					
Tsp[K]  	Tc[K]   	Ts[K]    	Rs[om]  	Po[mW]    	 Io[mA]
305.0000	306.4519	303.5800	184.4025	  4.6101	  5.0000
					
U3x[V]  	U3y[V]  	Phase[deg]	|U1|[V]  	F[Hz]    	Ts[K]  
3.168375E-4	-1.327000E-5	2.390000E+0	9.204000E-1	6.310000E+0	3.049609E+2
3.135675E-4	-1.304000E-5	2.380000E+0	9.203300E-1	7.940000E+0	3.049230E+2
3.129075E-4	-1.895750E-5	3.510000E+0	9.201400E-1	1.000000E+1	3.047856E+2
3.095225E-4	-1.238750E-5	2.320000E+0	9.199900E-1	1.260000E+1	3.046364E+2
3.072775E-4	-1.230750E-5	2.270000E+0	9.199100E-1	1.580000E+1	3.045476E+2
3.055000E-4	-1.238250E-5	2.270000E+0	9.193850E-1	1.990000E+1	3.042313E+2
3.036850E-4	-1.229750E-5	2.280000E+0	9.191500E-1	2.510000E+1	3.041239E+2
3.021275E-4	-1.267750E-5	2.400000E+0	9.193000E-1	3.160000E+1	3.041077E+2
3.003875E-4	-1.297750E-5	2.490000E+0	9.194000E-1	3.980000E+1	3.041909E+2
2.972375E-4	-1.385500E-5	1.420000E+0	9.180350E-1	5.010000E+1	3.042937E+2
2.963175E-4	-1.355500E-5	2.630000E+0	9.191450E-1	6.310000E+1	3.041778E+2
2.943675E-4	-1.388250E-5	2.680000E+0	9.191850E-1	7.940000E+1	3.041583E+2
2.934150E-4	-1.454000E-5	2.790000E+0	9.193200E-1	1.000000E+2	3.041930E+2
2.901825E-4	-1.488000E-5	2.920000E+0	9.192950E-1	1.260000E+2	3.042126E+2
2.882000E-4	-1.540750E-5	3.090000E+0	9.193050E-1	1.580000E+2	3.042377E+2
2.858550E-4	-1.598750E-5	3.190000E+0	9.193350E-1	1.990000E+2	3.042478E+2
2.837750E-4	-1.675250E-5	3.360000E+0	9.194000E-1	2.510000E+2	3.042367E+2
2.819850E-4	-1.719500E-5	3.520000E+0	9.194000E-1	3.160000E+2	3.042415E+2
2.796525E-4	-1.843500E-5	3.770000E+0	9.194000E-1	3.980000E+2	3.042086E+2
2.774850E-4	-1.990750E-5	4.120000E+0	9.194450E-1	5.010000E+2	3.041989E+2
2.753550E-4	-2.121750E-5	4.330000E+0	9.195750E-1	6.310000E+2	3.041891E+2
2.734675E-4	-2.300500E-5	4.820000E+0	9.196000E-1	7.940000E+2	3.041794E+2
2.713050E-4	-2.579500E-5	5.530000E+0	9.196150E-1	1.000000E+3	3.041800E+2
2.690050E-4	-2.891500E-5	6.120000E+0	9.197600E-1	1.260000E+3	3.042116E+2
2.668825E-4	-3.310500E-5	7.090000E+0	9.198550E-1	1.580000E+3	3.042203E+2
2.634425E-4	-3.905500E-5	8.450000E+0	9.198400E-1	1.990000E+3	3.042082E+2
2.609125E-4	-4.154000E-5	9.040000E+0	9.198000E-1	2.510000E+3	3.041970E+2
2.590500E-4	-4.754000E-5	1.021000E+1	9.199000E-1	3.160000E+3	3.042070E+2
2.592725E-4	-5.620000E-5	1.212000E+1	9.197000E-1	3.980000E+3	3.042131E+2
2.582375E-4	-7.061500E-5	1.541000E+1	9.196000E-1	5.010000E+3	3.042203E+2
2.516225E-4	-9.000250E-5	1.950000E+1	9.194000E-1	6.310000E+3	3.042092E+2
2.379625E-4	-1.143525E-4	2.574000E+1	9.191000E-1	7.940000E+3	3.042344E+2
2.315300E-4	-1.268375E-4	2.876000E+1	9.187450E-1	1.000000E+4	3.042149E+2
2.108975E-4	-1.448650E-4	3.450000E+1	9.182000E-1	1.260000E+4	3.042318E+2
1.948325E-4	-1.594425E-4	3.931000E+1	9.173000E-1	1.580000E+4	3.042305E+2
1.763400E-4	-1.652375E-4	4.313000E+1	9.160000E-1	1.990000E+4	3.042186E+2
1.674150E-4	-1.653150E-4	4.455000E+1	9.153150E-1	2.200000E+4	3.042288E+2
					
Tsp[K]  	Tc[K]   	Ts[K]    	Rs[om]  	Po[mW]    	 Io[mA]
310.0000	311.4597	308.5293	185.9500	  4.6487	  5.0000
					
U3x[V]  	U3y[V]  	Phase[deg]	|U1|[V]  	F[Hz]    	Ts[K]  
3.197200E-4	-1.360000E-5	2.420000E+0	9.280000E-1	6.310000E+0	3.098105E+2
3.172075E-4	-1.334250E-5	2.400000E+0	9.279000E-1	7.940000E+0	3.097471E+2
3.124875E-4	-6.640000E-6	1.360000E+0	9.277000E-1	1.000000E+1	3.096070E+2
3.126575E-4	-1.270750E-5	2.330000E+0	9.273750E-1	1.260000E+1	3.093701E+2
3.105075E-4	-1.258000E-5	2.320000E+0	9.271600E-1	1.580000E+1	3.092351E+2
3.087075E-4	-1.266000E-5	2.390000E+0	9.266700E-1	1.990000E+1	3.089075E+2
3.073475E-4	-1.282000E-5	2.470000E+0	9.265450E-1	2.510000E+1	3.089071E+2
3.055925E-4	-1.314000E-5	2.460000E+0	9.271500E-1	3.160000E+1	3.091886E+2
3.035625E-4	-1.333750E-5	2.530000E+0	9.271000E-1	3.980000E+1	3.092126E+2
3.012475E-4	-1.340500E-5	2.730000E+0	9.276400E-1	5.010000E+1	3.091773E+2
2.995150E-4	-1.408750E-5	2.680000E+0	9.268150E-1	6.310000E+1	3.090548E+2
2.974425E-4	-1.430750E-5	2.760000E+0	9.268750E-1	7.940000E+1	3.091411E+2
2.963625E-4	-1.499500E-5	2.880000E+0	9.269250E-1	1.000000E+2	3.091435E+2
2.929625E-4	-1.530000E-5	2.980000E+0	9.268000E-1	1.260000E+2	3.091340E+2
2.909375E-4	-1.577750E-5	3.100000E+0	9.268000E-1	1.580000E+2	3.091190E+2
2.886275E-4	-1.646000E-5	3.260000E+0	9.267800E-1	1.990000E+2	3.090889E+2
2.864000E-4	-1.712500E-5	3.420000E+0	9.268000E-1	2.510000E+2	3.090776E+2
2.845750E-4	-1.762500E-5	3.560000E+0	9.268000E-1	3.160000E+2	3.090708E+2
2.821400E-4	-1.896250E-5	3.830000E+0	9.268650E-1	3.980000E+2	3.090833E+2
2.799375E-4	-2.025000E-5	4.100000E+0	9.269150E-1	5.010000E+2	3.090800E+2
2.777350E-4	-2.177500E-5	4.500000E+0	9.270950E-1	6.310000E+2	3.091066E+2
2.758600E-4	-2.361500E-5	4.910000E+0	9.271200E-1	7.940000E+2	3.091201E+2
2.734075E-4	-2.654250E-5	5.390000E+0	9.271150E-1	1.000000E+3	3.091358E+2
2.713875E-4	-2.940250E-5	6.250000E+0	9.272000E-1	1.260000E+3	3.091003E+2
2.688525E-4	-3.380750E-5	7.150000E+0	9.273000E-1	1.580000E+3	3.091027E+2
2.653675E-4	-4.003000E-5	8.600000E+0	9.273000E-1	1.990000E+3	3.090986E+2
2.628475E-4	-4.210000E-5	9.290000E+0	9.273000E-1	2.510000E+3	3.091019E+2
2.612225E-4	-4.829250E-5	1.038000E+1	9.273000E-1	3.160000E+3	3.091140E+2
2.612725E-4	-5.751250E-5	1.255000E+1	9.271000E-1	3.980000E+3	3.091097E+2
2.603775E-4	-7.181500E-5	1.560000E+1	9.270000E-1	5.010000E+3	3.090932E+2
2.536875E-4	-9.177500E-5	1.998000E+1	9.268000E-1	6.310000E+3	3.091109E+2
2.388725E-4	-1.164800E-4	2.583000E+1	9.264850E-1	7.940000E+3	3.091162E+2
2.310025E-4	-1.281200E-4	2.885000E+1	9.260000E-1	1.000000E+4	3.091142E+2
2.103950E-4	-1.472575E-4	3.479000E+1	9.255000E-1	1.260000E+4	3.091209E+2
1.945850E-4	-1.603200E-4	3.948000E+1	9.246000E-1	1.580000E+4	3.090980E+2
1.769525E-4	-1.657225E-4	4.312000E+1	9.233000E-1	1.990000E+4	3.091167E+2
1.674225E-4	-1.686500E-4	4.529000E+1	9.226000E-1	2.200000E+4	3.090921E+2
					
Tsp[K]  	Tc[K]   	Ts[K]    	Rs[om]  	Po[mW]    	 Io[mA]
315.0000	316.4806	313.4902	187.4200	  4.6855	  5.0000
					
U3x[V]  	U3y[V]  	Phase[deg]	|U1|[V]  	F[Hz]    	Ts[K]  
3.233850E-4	-1.368500E-5	2.410000E+0	9.352000E-1	6.310000E+0	3.147594E+2
3.206625E-4	-1.357000E-5	2.430000E+0	9.350000E-1	7.940000E+0	3.146567E+2
3.250975E-4	-1.580750E-5	2.890000E+0	9.348000E-1	1.000000E+1	3.144670E+2
3.158325E-4	-1.302000E-5	2.380000E+0	9.341000E-1	1.260000E+1	3.140175E+2
3.140900E-4	-1.292750E-5	2.290000E+0	9.338500E-1	1.580000E+1	3.138599E+2
3.125425E-4	-1.309750E-5	2.380000E+0	9.342000E-1	1.990000E+1	3.140049E+2
3.107175E-4	-1.328250E-5	2.620000E+0	9.344050E-1	2.510000E+1	3.141323E+2
3.086200E-4	-1.358250E-5	2.510000E+0	9.341000E-1	3.160000E+1	3.140899E+2
3.065175E-4	-1.384750E-5	2.600000E+0	9.339900E-1	3.980000E+1	3.140026E+2
3.060375E-4	-1.459750E-5	4.930000E+0	9.337850E-1	5.010000E+1	3.139693E+2
3.023400E-4	-1.449750E-5	2.730000E+0	9.339750E-1	6.310000E+1	3.140987E+2
3.011250E-4	-1.503250E-5	2.860000E+0	9.338950E-1	7.940000E+1	3.140852E+2
2.987525E-4	-1.535000E-5	2.960000E+0	9.336750E-1	1.000000E+2	3.140541E+2
2.957350E-4	-1.576750E-5	3.060000E+0	9.338150E-1	1.260000E+2	3.140231E+2
2.936400E-4	-1.624250E-5	3.180000E+0	9.338000E-1	1.580000E+2	3.140221E+2
2.912025E-4	-1.701500E-5	3.350000E+0	9.338150E-1	1.990000E+2	3.140331E+2
2.888825E-4	-1.765000E-5	3.470000E+0	9.338850E-1	2.510000E+2	3.140215E+2
2.870350E-4	-1.814250E-5	3.580000E+0	9.339000E-1	3.160000E+2	3.140441E+2
2.847600E-4	-1.936750E-5	3.870000E+0	9.340000E-1	3.980000E+2	3.140600E+2
2.823500E-4	-2.077750E-5	4.200000E+0	9.340450E-1	5.010000E+2	3.140761E+2
2.799325E-4	-2.242000E-5	4.580000E+0	9.341300E-1	6.310000E+2	3.140929E+2
2.779925E-4	-2.413500E-5	5.000000E+0	9.342000E-1	7.940000E+2	3.140777E+2
2.760025E-4	-2.695250E-5	5.640000E+0	9.341200E-1	1.000000E+3	3.140641E+2
2.734325E-4	-2.999750E-5	6.330000E+0	9.342050E-1	1.260000E+3	3.140547E+2
2.709175E-4	-3.444500E-5	7.180000E+0	9.343000E-1	1.580000E+3	3.140545E+2
2.673800E-4	-4.018250E-5	8.460000E+0	9.343000E-1	1.990000E+3	3.140801E+2
2.647650E-4	-4.305000E-5	9.440000E+0	9.343000E-1	2.510000E+3	3.140565E+2
2.632350E-4	-4.904500E-5	1.088000E+1	9.343000E-1	3.160000E+3	3.140591E+2
2.624425E-4	-5.820250E-5	1.255000E+1	9.340100E-1	3.980000E+3	3.140579E+2
2.615800E-4	-7.351750E-5	1.580000E+1	9.339050E-1	5.010000E+3	3.140415E+2
2.551975E-4	-9.333500E-5	2.018000E+1	9.337000E-1	6.310000E+3	3.140813E+2
2.400875E-4	-1.179900E-4	2.610000E+1	9.334000E-1	7.940000E+3	3.140628E+2
2.363900E-4	-1.285025E-4	2.864000E+1	9.328700E-1	1.000000E+4	3.140521E+2
2.127425E-4	-1.481625E-4	3.508000E+1	9.323900E-1	1.260000E+4	3.140436E+2
1.952975E-4	-1.616900E-4	3.962000E+1	9.314000E-1	1.580000E+4	3.140650E+2
1.769400E-4	-1.659450E-4	4.318000E+1	9.301000E-1	1.990000E+4	3.140716E+2
1.749250E-4	-1.592525E-4	4.235000E+1	9.294000E-1	2.200000E+4	3.140783E+2
					
Tsp[K]  	Tc[K]   	Ts[K]    	Rs[om]  	Po[mW]    	 Io[mA]
320.0000	321.4917	318.4537	188.7700	  4.7193	  5.0000
					
U3x[V]  	U3y[V]  	Phase[deg]	|U1|[V]  	F[Hz]    	Ts[K]  
3.268575E-4	-1.416000E-5	2.480000E+0	9.419300E-1	6.310000E+0	3.196711E+2
3.241450E-4	-1.388750E-5	2.470000E+0	9.417000E-1	7.940000E+0	3.195805E+2
3.266700E-4	-2.157000E-5	3.980000E+0	9.413700E-1	1.000000E+1	3.193506E+2
3.190050E-4	-1.323500E-5	2.420000E+0	9.405000E-1	1.260000E+1	3.187642E+2
3.175275E-4	-1.338500E-5	2.440000E+0	9.405950E-1	1.580000E+1	3.187514E+2
3.157625E-4	-1.347000E-5	2.450000E+0	9.411000E-1	1.990000E+1	3.191417E+2
3.133900E-4	-1.369000E-5	2.360000E+0	9.408700E-1	2.510000E+1	3.191448E+2
3.115225E-4	-1.401000E-5	2.570000E+0	9.405150E-1	3.160000E+1	3.189434E+2
3.095475E-4	-1.432000E-5	2.680000E+0	9.405900E-1	3.980000E+1	3.189506E+2
3.067275E-4	-1.503000E-5	-2.400000E-1	9.374300E-1	5.010000E+1	3.190142E+2
3.051500E-4	-1.494000E-5	2.840000E+0	9.403750E-1	6.310000E+1	3.189977E+2
3.039250E-4	-1.557500E-5	2.910000E+0	9.403150E-1	7.940000E+1	3.189828E+2
3.008050E-4	-1.611750E-5	3.050000E+0	9.404150E-1	1.000000E+2	3.189963E+2
2.984000E-4	-1.626000E-5	3.110000E+0	9.403800E-1	1.260000E+2	3.190133E+2
2.961175E-4	-1.664500E-5	3.240000E+0	9.403350E-1	1.580000E+2	3.190192E+2
2.937825E-4	-1.736750E-5	3.350000E+0	9.404000E-1	1.990000E+2	3.190290E+2
2.915350E-4	-1.807750E-5	3.580000E+0	9.404100E-1	2.510000E+2	3.190403E+2
2.894300E-4	-1.858750E-5	3.660000E+0	9.404100E-1	3.160000E+2	3.190527E+2
2.869700E-4	-1.990750E-5	3.970000E+0	9.404000E-1	3.980000E+2	3.190351E+2
2.846700E-4	-2.139250E-5	4.400000E+0	9.404900E-1	5.010000E+2	3.190174E+2
2.823300E-4	-2.268500E-5	4.700000E+0	9.405200E-1	6.310000E+2	3.190209E+2
2.802550E-4	-2.481500E-5	5.020000E+0	9.406000E-1	7.940000E+2	3.190133E+2
2.776475E-4	-2.737500E-5	5.550000E+0	9.405800E-1	1.000000E+3	3.190114E+2
2.755600E-4	-3.056250E-5	6.300000E+0	9.406650E-1	1.260000E+3	3.190357E+2
2.728375E-4	-3.506500E-5	7.450000E+0	9.407000E-1	1.580000E+3	3.190472E+2
2.690750E-4	-4.109250E-5	8.630000E+0	9.407000E-1	1.990000E+3	3.190356E+2
2.663900E-4	-4.404500E-5	9.070000E+0	9.406000E-1	2.510000E+3	3.190123E+2
2.647225E-4	-5.035500E-5	1.077000E+1	9.406000E-1	3.160000E+3	3.190337E+2
2.638325E-4	-5.854250E-5	1.262000E+1	9.403000E-1	3.980000E+3	3.190265E+2
2.628875E-4	-7.448500E-5	1.584000E+1	9.401450E-1	5.010000E+3	3.190394E+2
2.560750E-4	-9.425000E-5	2.026000E+1	9.399000E-1	6.310000E+3	3.190560E+2
2.411800E-4	-1.191625E-4	2.639000E+1	9.396000E-1	7.940000E+3	3.190447E+2
2.331600E-4	-1.312625E-4	2.942000E+1	9.391800E-1	1.000000E+4	3.190623E+2
2.124475E-4	-1.480875E-4	3.502000E+1	9.385000E-1	1.260000E+4	3.190285E+2
1.951200E-4	-1.618575E-4	3.964000E+1	9.375000E-1	1.580000E+4	3.190328E+2
1.757600E-4	-1.668250E-4	4.352000E+1	9.362000E-1	1.990000E+4	3.190534E+2
1.673475E-4	-1.603350E-4	4.367000E+1	9.354000E-1	2.200000E+4	3.190369E+2
					
Tsp[K]  	Tc[K]   	Ts[K]    	Rs[om]  	Po[mW]    	 Io[mA]
325.0000	326.5146	323.4404	190.0000	  4.7500	  5.0000
					
U3x[V]  	U3y[V]  	Phase[deg]	|U1|[V]  	F[Hz]    	Ts[K]  
3.302975E-4	-1.439500E-5	2.490000E+0	9.478300E-1	6.310000E+0	3.246144E+2
3.272450E-4	-1.427000E-5	2.510000E+0	9.475000E-1	7.940000E+0	3.244621E+2
3.162975E-4	-1.096500E-5	2.530000E+0	9.470350E-1	1.000000E+1	3.241863E+2
3.223650E-4	-1.366750E-5	2.410000E+0	9.463800E-1	1.260000E+1	3.236852E+2
3.209175E-4	-1.365500E-5	2.440000E+0	9.467000E-1	1.580000E+1	3.238355E+2
3.187025E-4	-1.384250E-5	2.470000E+0	9.469000E-1	1.990000E+1	3.241024E+2
3.162750E-4	-1.403750E-5	2.420000E+0	9.466850E-1	2.510000E+1	3.240251E+2
3.145775E-4	-1.447250E-5	2.640000E+0	9.464000E-1	3.160000E+1	3.238893E+2
3.124950E-4	-1.470250E-5	2.690000E+0	9.464150E-1	3.980000E+1	3.239594E+2
3.104900E-4	-1.875500E-5	2.480000E+0	9.422950E-1	5.010000E+1	3.240238E+2
3.088525E-4	-1.566500E-5	2.910000E+0	9.460250E-1	6.310000E+1	3.239524E+2
3.066425E-4	-1.595500E-5	2.980000E+0	9.460150E-1	7.940000E+1	3.239713E+2
3.032900E-4	-1.637500E-5	3.100000E+0	9.460150E-1	1.000000E+2	3.239757E+2
3.008275E-4	-1.669750E-5	3.190000E+0	9.460000E-1	1.260000E+2	3.240003E+2
2.985150E-4	-1.736000E-5	3.340000E+0	9.460000E-1	1.580000E+2	3.239980E+2
2.961850E-4	-1.782250E-5	3.460000E+0	9.459800E-1	1.990000E+2	3.239990E+2
2.938250E-4	-1.862000E-5	3.630000E+0	9.460000E-1	2.510000E+2	3.239970E+2
2.916500E-4	-1.896000E-5	3.720000E+0	9.460000E-1	3.160000E+2	3.239960E+2
2.890950E-4	-2.029500E-5	4.000000E+0	9.459650E-1	3.980000E+2	3.239731E+2
2.866150E-4	-2.187500E-5	4.470000E+0	9.460000E-1	5.010000E+2	3.239760E+2
2.842750E-4	-2.335750E-5	4.620000E+0	9.461000E-1	6.310000E+2	3.239694E+2
2.820225E-4	-2.513000E-5	5.130000E+0	9.461000E-1	7.940000E+2	3.240051E+2
2.798350E-4	-2.785250E-5	5.830000E+0	9.460900E-1	1.000000E+3	3.239935E+2
2.771600E-4	-3.122500E-5	6.470000E+0	9.461000E-1	1.260000E+3	3.239883E+2
2.747900E-4	-3.578250E-5	7.380000E+0	9.461950E-1	1.580000E+3	3.240145E+2
2.710025E-4	-4.195500E-5	8.890000E+0	9.460900E-1	1.990000E+3	3.240092E+2
2.684375E-4	-4.482250E-5	9.510000E+0	9.460000E-1	2.510000E+3	3.239861E+2
2.663450E-4	-5.064250E-5	1.085000E+1	9.460000E-1	3.160000E+3	3.239896E+2
2.654025E-4	-6.034500E-5	1.314000E+1	9.457000E-1	3.980000E+3	3.239963E+2
2.646850E-4	-7.547000E-5	1.617000E+1	9.456000E-1	5.010000E+3	3.240106E+2
2.569850E-4	-9.559000E-5	2.045000E+1	9.452600E-1	6.310000E+3	3.240028E+2
2.420150E-4	-1.204500E-4	2.646000E+1	9.449000E-1	7.940000E+3	3.240109E+2
2.285775E-4	-1.375975E-4	3.109000E+1	9.443250E-1	1.000000E+4	3.239964E+2
2.128525E-4	-1.501250E-4	3.525000E+1	9.437950E-1	1.260000E+4	3.239950E+2
1.956475E-4	-1.635700E-4	3.987000E+1	9.428000E-1	1.580000E+4	3.239928E+2
1.756975E-4	-1.679275E-4	4.368000E+1	9.414000E-1	1.990000E+4	3.240107E+2
1.677225E-4	-1.637400E-4	4.434000E+1	9.406000E-1	2.200000E+4	3.240059E+2
**END	Date: 2019-04-10	Time: 11:00:26
