*** szafir SiO2 20 mkm 15-04-2019	*START	Date: 2019-04-15	Time: 13:31:42
Current for R :2.000mA	Current 3-Omega25.000 mA		

Tsp[K]  	Tc[K]   	Ts[K]    	Rs[om]  	Po[mW]    	 Io[mA]
200.0000	200.0044	202.6025	 19.3302	 12.0814	 25.0000
					
U3x[V]  	U3y[V]  	Phase[deg]	|U1|[V]  	F[Hz]    	Ts[K]  
1.520140E-4	-2.151800E-5	8.070000E+0	4.881500E-1	6.310000E+0	2.026097E+2
1.502540E-4	-2.074000E-5	7.870000E+0	4.925000E-1	7.940000E+0	2.026191E+2
1.491280E-4	-1.937400E-5	7.380000E+0	4.945000E-1	1.000000E+1	2.026284E+2
1.454380E-4	-1.840800E-5	7.220000E+0	4.953000E-1	1.260000E+1	2.026392E+2
1.437020E-4	-1.794800E-5	6.840000E+0	4.957000E-1	1.580000E+1	2.026398E+2
1.410340E-4	-1.627400E-5	6.610000E+0	4.961000E-1	1.990000E+1	2.026381E+2
1.389420E-4	-1.527200E-5	6.280000E+0	4.961000E-1	2.510000E+1	2.026303E+2
1.370940E-4	-1.446800E-5	6.050000E+0	4.962000E-1	3.160000E+1	2.026298E+2
1.353420E-4	-1.397400E-5	5.880000E+0	4.962000E-1	3.980000E+1	2.026237E+2
1.326020E-4	-1.258200E-5	2.270000E+0	4.956800E-1	5.010000E+1	2.026323E+2
1.321100E-4	-1.327800E-5	5.730000E+0	4.961000E-1	6.310000E+1	2.026302E+2
1.305140E-4	-1.325400E-5	5.800000E+0	4.961000E-1	7.940000E+1	2.026446E+2
1.288240E-4	-1.339200E-5	5.940000E+0	4.961000E-1	1.000000E+2	2.026283E+2
1.270080E-4	-1.358000E-5	6.100000E+0	4.961000E-1	1.260000E+2	2.026409E+2
1.251100E-4	-1.392800E-5	6.330000E+0	4.962000E-1	1.580000E+2	2.026336E+2
1.231020E-4	-1.415000E-5	6.550000E+0	4.962000E-1	1.990000E+2	2.026272E+2
1.210020E-4	-1.444800E-5	6.820000E+0	4.962000E-1	2.510000E+2	2.026253E+2
1.189780E-4	-1.463800E-5	7.020000E+0	4.962000E-1	3.160000E+2	2.026369E+2
1.169520E-4	-1.492400E-5	7.310000E+0	4.962000E-1	3.980000E+2	2.026340E+2
1.149720E-4	-1.518200E-5	7.560000E+0	4.962000E-1	5.010000E+2	2.026147E+2
1.129460E-4	-1.570200E-5	8.000000E+0	4.962000E-1	6.310000E+2	2.026338E+2
1.110440E-4	-1.605200E-5	8.250000E+0	4.962000E-1	7.940000E+2	2.026424E+2
1.089020E-4	-1.665000E-5	8.640000E+0	4.962000E-1	1.000000E+3	2.026298E+2
1.069720E-4	-1.747400E-5	9.340000E+0	4.962000E-1	1.260000E+3	2.026453E+2
1.051600E-4	-1.859000E-5	1.004000E+1	4.962000E-1	1.580000E+3	2.026279E+2
1.026400E-4	-2.006200E-5	1.099000E+1	4.962000E-1	1.990000E+3	2.026399E+2
9.967000E-5	-2.141000E-5	1.203000E+1	4.962000E-1	2.510000E+3	2.026367E+2
9.680000E-5	-2.300000E-5	1.349000E+1	4.961000E-1	3.160000E+3	2.026358E+2
9.853600E-5	-2.559600E-5	1.461000E+1	4.960700E-1	3.980000E+3	2.026420E+2
9.700600E-5	-2.961600E-5	1.697000E+1	4.960400E-1	5.010000E+3	2.026356E+2
9.442200E-5	-3.597400E-5	2.085000E+1	4.960000E-1	6.310000E+3	2.026426E+2
8.880200E-5	-4.223400E-5	2.536000E+1	4.959000E-1	7.940000E+3	2.026332E+2
8.356200E-5	-4.726200E-5	2.948000E+1	4.959000E-1	1.000000E+4	2.026376E+2
7.609800E-5	-5.212600E-5	3.455000E+1	4.958000E-1	1.260000E+4	2.026341E+2
6.575800E-5	-5.487600E-5	3.988000E+1	4.956000E-1	1.580000E+4	2.026270E+2
7.678600E-5	-7.293600E-5	4.357000E+1	4.953000E-1	1.990000E+4	2.026392E+2
7.259800E-5	-8.013000E-5	4.791000E+1	4.952000E-1	2.200000E+4	2.026312E+2
					
Tsp[K]  	Tc[K]   	Ts[K]    	Rs[om]  	Po[mW]    	 Io[mA]
205.0000	205.0109	207.4847	 19.5250	 12.2031	 25.0000
					
U3x[V]  	U3y[V]  	Phase[deg]	|U1|[V]  	F[Hz]    	Ts[K]  
1.549220E-4	-2.211600E-5	8.120000E+0	4.925700E-1	6.310000E+0	2.074992E+2
1.531460E-4	-2.132800E-5	7.920000E+0	4.970000E-1	7.940000E+0	2.075060E+2
1.511320E-4	-2.123600E-5	8.020000E+0	4.990000E-1	1.000000E+1	2.075192E+2
1.483180E-4	-1.897800E-5	7.260000E+0	4.998000E-1	1.260000E+1	2.075171E+2
1.462300E-4	-1.702400E-5	6.650000E+0	5.002000E-1	1.580000E+1	2.075180E+2
1.436940E-4	-1.672600E-5	6.620000E+0	5.004000E-1	1.990000E+1	2.075131E+2
1.415940E-4	-1.582200E-5	6.370000E+0	5.005000E-1	2.510000E+1	2.075280E+2
1.396580E-4	-1.501000E-5	6.110000E+0	5.006000E-1	3.160000E+1	2.075133E+2
1.379640E-4	-1.438800E-5	5.940000E+0	5.006000E-1	3.980000E+1	2.075182E+2
1.362000E-4	-1.575400E-5	7.620000E+0	4.999000E-1	5.010000E+1	2.075168E+2
1.346340E-4	-1.378200E-5	5.870000E+0	5.006500E-1	6.310000E+1	2.075153E+2
1.328280E-4	-1.388600E-5	5.960000E+0	5.007000E-1	7.940000E+1	2.075162E+2
1.310800E-4	-1.406400E-5	6.080000E+0	5.007000E-1	1.000000E+2	2.075264E+2
1.290880E-4	-1.428800E-5	6.320000E+0	5.007000E-1	1.260000E+2	2.075147E+2
1.271380E-4	-1.458800E-5	6.560000E+0	5.007000E-1	1.580000E+2	2.075227E+2
1.249640E-4	-1.479800E-5	6.760000E+0	5.007000E-1	1.990000E+2	2.075137E+2
1.227780E-4	-1.510000E-5	7.010000E+0	5.007000E-1	2.510000E+2	2.075132E+2
1.207000E-4	-1.528400E-5	7.220000E+0	5.007000E-1	3.160000E+2	2.075159E+2
1.185420E-4	-1.552400E-5	7.520000E+0	5.007000E-1	3.980000E+2	2.075296E+2
1.164180E-4	-1.593000E-5	7.820000E+0	5.007000E-1	5.010000E+2	2.075089E+2
1.143900E-4	-1.623000E-5	8.040000E+0	5.008000E-1	6.310000E+2	2.075135E+2
1.123280E-4	-1.671200E-5	8.560000E+0	5.008000E-1	7.940000E+2	2.075129E+2
1.102420E-4	-1.717800E-5	8.910000E+0	5.007700E-1	1.000000E+3	2.075084E+2
1.081820E-4	-1.807800E-5	9.470000E+0	5.007500E-1	1.260000E+3	2.075045E+2
1.062200E-4	-1.922400E-5	1.022000E+1	5.008000E-1	1.580000E+3	2.075209E+2
1.036600E-4	-2.073600E-5	1.142000E+1	5.007200E-1	1.990000E+3	2.075134E+2
1.004420E-4	-2.216200E-5	1.254000E+1	5.007800E-1	2.510000E+3	2.075053E+2
9.773600E-5	-2.371400E-5	1.369000E+1	5.008000E-1	3.160000E+3	2.075229E+2
9.930400E-5	-2.616600E-5	1.481000E+1	5.007000E-1	3.980000E+3	2.075058E+2
9.770400E-5	-3.027600E-5	1.728000E+1	5.007000E-1	5.010000E+3	2.075185E+2
9.498400E-5	-3.670200E-5	2.121000E+1	5.006000E-1	6.310000E+3	2.075205E+2
8.924600E-5	-4.305000E-5	2.571000E+1	5.006000E-1	7.940000E+3	2.075205E+2
8.257200E-5	-4.597000E-5	2.902000E+1	5.005000E-1	1.000000E+4	2.075147E+2
7.628200E-5	-5.262200E-5	3.455000E+1	5.004000E-1	1.260000E+4	2.075092E+2
6.514600E-5	-5.575400E-5	4.061000E+1	5.002000E-1	1.580000E+4	2.075059E+2
7.698200E-5	-7.366600E-5	4.357000E+1	4.999400E-1	1.990000E+4	2.075082E+2
7.461200E-5	-8.331600E-5	4.818000E+1	4.998000E-1	2.200000E+4	2.075170E+2
					
Tsp[K]  	Tc[K]   	Ts[K]    	Rs[om]  	Po[mW]    	 Io[mA]
210.0000	210.0091	212.3638	 19.7275	 12.3297	 25.0000
					
U3x[V]  	U3y[V]  	Phase[deg]	|U1|[V]  	F[Hz]    	Ts[K]  
1.580440E-4	-2.276800E-5	8.210000E+0	4.976400E-1	6.310000E+0	2.123770E+2
1.561520E-4	-2.187000E-5	7.980000E+0	5.018300E-1	7.940000E+0	2.123772E+2
1.526700E-4	-2.097200E-5	7.770000E+0	5.037000E-1	1.000000E+1	2.123929E+2
1.510180E-4	-1.941600E-5	7.310000E+0	5.045000E-1	1.260000E+1	2.123952E+2
1.480620E-4	-1.851200E-5	7.230000E+0	5.048000E-1	1.580000E+1	2.124025E+2
1.464260E-4	-1.717400E-5	6.690000E+0	5.050000E-1	1.990000E+1	2.124054E+2
1.443460E-4	-1.616800E-5	6.370000E+0	5.051000E-1	2.510000E+1	2.123982E+2
1.423760E-4	-1.547400E-5	6.210000E+0	5.052000E-1	3.160000E+1	2.124082E+2
1.404900E-4	-1.491800E-5	6.050000E+0	5.051600E-1	3.980000E+1	2.123994E+2
1.384640E-4	-1.455800E-5	8.000000E+0	5.056900E-1	5.010000E+1	2.123967E+2
1.370360E-4	-1.440200E-5	6.020000E+0	5.052000E-1	6.310000E+1	2.124111E+2
1.351740E-4	-1.450000E-5	6.110000E+0	5.052000E-1	7.940000E+1	2.124034E+2
1.332160E-4	-1.467400E-5	6.290000E+0	5.052000E-1	1.000000E+2	2.123998E+2
1.311980E-4	-1.502000E-5	6.520000E+0	5.052000E-1	1.260000E+2	2.123816E+2
1.290460E-4	-1.525200E-5	6.730000E+0	5.052000E-1	1.580000E+2	2.124022E+2
1.268420E-4	-1.542400E-5	6.970000E+0	5.052000E-1	1.990000E+2	2.124030E+2
1.245800E-4	-1.569600E-5	7.210000E+0	5.052000E-1	2.510000E+2	2.123887E+2
1.223400E-4	-1.592600E-5	7.400000E+0	5.052000E-1	3.160000E+2	2.124057E+2
1.200900E-4	-1.617400E-5	7.650000E+0	5.052000E-1	3.980000E+2	2.123980E+2
1.179840E-4	-1.646200E-5	7.970000E+0	5.052000E-1	5.010000E+2	2.123991E+2
1.157980E-4	-1.679400E-5	8.100000E+0	5.052000E-1	6.310000E+2	2.124008E+2
1.137280E-4	-1.740400E-5	8.730000E+0	5.052000E-1	7.940000E+2	2.123983E+2
1.114500E-4	-1.799400E-5	9.110000E+0	5.052000E-1	1.000000E+3	2.124000E+2
1.092080E-4	-1.878600E-5	9.790000E+0	5.052000E-1	1.260000E+3	2.123971E+2
1.071820E-4	-1.992000E-5	1.055000E+1	5.052000E-1	1.580000E+3	2.123906E+2
1.045260E-4	-2.141000E-5	1.160000E+1	5.052000E-1	1.990000E+3	2.124015E+2
1.013780E-4	-2.280600E-5	1.264000E+1	5.052000E-1	2.510000E+3	2.124087E+2
9.848200E-5	-2.440000E-5	1.392000E+1	5.052000E-1	3.160000E+3	2.124034E+2
1.000340E-4	-2.681400E-5	1.505000E+1	5.051000E-1	3.980000E+3	2.124047E+2
9.844400E-5	-3.095400E-5	1.748000E+1	5.051000E-1	5.010000E+3	2.123958E+2
9.548600E-5	-3.750400E-5	2.142000E+1	5.050000E-1	6.310000E+3	2.123980E+2
8.955200E-5	-4.389600E-5	2.614000E+1	5.050000E-1	7.940000E+3	2.124090E+2
8.169000E-5	-4.514000E-5	2.886000E+1	5.049000E-1	1.000000E+4	2.123928E+2
7.577200E-5	-5.363800E-5	3.517000E+1	5.048000E-1	1.260000E+4	2.123907E+2
8.111000E-5	-6.140800E-5	3.704000E+1	5.046000E-1	1.580000E+4	2.123978E+2
7.707000E-5	-7.456600E-5	4.400000E+1	5.044000E-1	1.990000E+4	2.123941E+2
7.335400E-5	-8.371400E-5	4.885000E+1	5.042000E-1	2.200000E+4	2.124001E+2
					
Tsp[K]  	Tc[K]   	Ts[K]    	Rs[om]  	Po[mW]    	 Io[mA]
215.0000	215.0093	217.2431	 19.9237	 12.4523	 25.0000
					
U3x[V]  	U3y[V]  	Phase[deg]	|U1|[V]  	F[Hz]    	Ts[K]  
1.610240E-4	-2.340800E-5	8.270000E+0	5.023500E-1	6.310000E+0	2.172511E+2
1.591580E-4	-2.245800E-5	8.010000E+0	5.064700E-1	7.940000E+0	2.172528E+2
1.563240E-4	-2.208000E-5	8.040000E+0	5.082500E-1	1.000000E+1	2.172583E+2
1.539800E-4	-1.988600E-5	7.390000E+0	5.090000E-1	1.260000E+1	2.172536E+2
1.515120E-4	-1.804600E-5	6.780000E+0	5.093000E-1	1.580000E+1	2.172629E+2
1.491620E-4	-1.764800E-5	6.750000E+0	5.095000E-1	1.990000E+1	2.172716E+2
1.470420E-4	-1.663400E-5	6.440000E+0	5.095000E-1	2.510000E+1	2.172637E+2
1.450060E-4	-1.592200E-5	6.270000E+0	5.096000E-1	3.160000E+1	2.172638E+2
1.430900E-4	-1.537200E-5	6.130000E+0	5.096100E-1	3.980000E+1	2.172645E+2
1.400760E-4	-1.601400E-5	7.030000E+0	5.105200E-1	5.010000E+1	2.172659E+2
1.395140E-4	-1.505800E-5	6.160000E+0	5.096000E-1	6.310000E+1	2.172508E+2
1.375140E-4	-1.508600E-5	6.270000E+0	5.096000E-1	7.940000E+1	2.172673E+2
1.355660E-4	-1.528200E-5	6.460000E+0	5.096000E-1	1.000000E+2	2.172608E+2
1.333100E-4	-1.559200E-5	6.650000E+0	5.096000E-1	1.260000E+2	2.172656E+2
1.311360E-4	-1.587000E-5	6.900000E+0	5.096000E-1	1.580000E+2	2.172582E+2
1.287360E-4	-1.611000E-5	7.170000E+0	5.096000E-1	1.990000E+2	2.172598E+2
1.263320E-4	-1.634400E-5	7.370000E+0	5.096000E-1	2.510000E+2	2.172626E+2
1.240660E-4	-1.656400E-5	7.640000E+0	5.096000E-1	3.160000E+2	2.172569E+2
1.218680E-4	-1.681400E-5	7.840000E+0	5.096000E-1	3.980000E+2	2.172509E+2
1.195340E-4	-1.707400E-5	8.100000E+0	5.096000E-1	5.010000E+2	2.172611E+2
1.172060E-4	-1.744200E-5	8.520000E+0	5.096000E-1	6.310000E+2	2.172544E+2
1.150080E-4	-1.812200E-5	8.970000E+0	5.096000E-1	7.940000E+2	2.172535E+2
1.127200E-4	-1.865400E-5	9.300000E+0	5.096000E-1	1.000000E+3	2.172757E+2
1.104800E-4	-1.937600E-5	9.980000E+0	5.096000E-1	1.260000E+3	2.172571E+2
1.083380E-4	-2.060800E-5	1.081000E+1	5.096000E-1	1.580000E+3	2.172670E+2
1.055700E-4	-2.209800E-5	1.180000E+1	5.096000E-1	1.990000E+3	2.172635E+2
1.021960E-4	-2.347800E-5	1.298000E+1	5.096000E-1	2.510000E+3	2.172606E+2
9.925800E-5	-2.525400E-5	1.430000E+1	5.096000E-1	3.160000E+3	2.172525E+2
1.000960E-4	-2.761000E-5	1.542000E+1	5.095000E-1	3.980000E+3	2.172630E+2
9.905400E-5	-3.169400E-5	1.766000E+1	5.095000E-1	5.010000E+3	2.172592E+2
9.598400E-5	-3.826200E-5	2.173000E+1	5.094000E-1	6.310000E+3	2.172567E+2
8.980800E-5	-4.472000E-5	2.650000E+1	5.094000E-1	7.940000E+3	2.172488E+2
8.535200E-5	-4.622400E-5	2.840000E+1	5.093300E-1	1.000000E+4	2.172571E+2
7.554200E-5	-5.442000E-5	3.580000E+1	5.092000E-1	1.260000E+4	2.172484E+2
8.121200E-5	-6.213000E-5	3.739000E+1	5.090000E-1	1.580000E+4	2.172523E+2
7.652200E-5	-7.460400E-5	4.439000E+1	5.088000E-1	1.990000E+4	2.172545E+2
7.414200E-5	-8.190200E-5	4.782000E+1	5.086000E-1	2.200000E+4	2.172626E+2
					
Tsp[K]  	Tc[K]   	Ts[K]    	Rs[om]  	Po[mW]    	 Io[mA]
220.0000	219.9877	222.0397	 20.1060	 12.5663	 25.0000
					
U3x[V]  	U3y[V]  	Phase[deg]	|U1|[V]  	F[Hz]    	Ts[K]  
1.642880E-4	-2.389400E-5	8.310000E+0	5.069800E-1	6.310000E+0	2.220678E+2
1.622620E-4	-2.305600E-5	8.070000E+0	5.109800E-1	7.940000E+0	2.220681E+2
1.604880E-4	-2.212600E-5	7.850000E+0	5.127000E-1	1.000000E+1	2.220704E+2
1.568000E-4	-2.035800E-5	7.390000E+0	5.134000E-1	1.260000E+1	2.220935E+2
1.541820E-4	-1.942200E-5	7.210000E+0	5.137000E-1	1.580000E+1	2.220755E+2
1.520980E-4	-1.808400E-5	6.780000E+0	5.139000E-1	1.990000E+1	2.220889E+2
1.497560E-4	-1.709600E-5	6.530000E+0	5.139000E-1	2.510000E+1	2.220887E+2
1.477740E-4	-1.647800E-5	6.380000E+0	5.140000E-1	3.160000E+1	2.220925E+2
1.457420E-4	-1.586200E-5	6.200000E+0	5.140000E-1	3.980000E+1	2.220999E+2
1.441420E-4	-1.559000E-5	7.370000E+0	5.131900E-1	5.010000E+1	2.220992E+2
1.419420E-4	-1.561200E-5	6.310000E+0	5.140000E-1	6.310000E+1	2.220824E+2
1.398800E-4	-1.572200E-5	6.420000E+0	5.140000E-1	7.940000E+1	2.220776E+2
1.377040E-4	-1.604600E-5	6.660000E+0	5.139900E-1	1.000000E+2	2.220838E+2
1.353960E-4	-1.629200E-5	6.880000E+0	5.140000E-1	1.260000E+2	2.220740E+2
1.330900E-4	-1.659200E-5	7.130000E+0	5.140000E-1	1.580000E+2	2.220798E+2
1.306800E-4	-1.673000E-5	7.290000E+0	5.139900E-1	1.990000E+2	2.220833E+2
1.283040E-4	-1.698600E-5	7.540000E+0	5.139900E-1	2.510000E+2	2.220753E+2
1.257780E-4	-1.718400E-5	7.780000E+0	5.140000E-1	3.160000E+2	2.220800E+2
1.234860E-4	-1.750400E-5	8.060000E+0	5.140000E-1	3.980000E+2	2.220729E+2
1.210000E-4	-1.781600E-5	8.400000E+0	5.139900E-1	5.010000E+2	2.220807E+2
1.186340E-4	-1.823200E-5	8.750000E+0	5.140000E-1	6.310000E+2	2.220698E+2
1.163560E-4	-1.870400E-5	9.120000E+0	5.139000E-1	7.940000E+2	2.220894E+2
1.140340E-4	-1.930400E-5	9.610000E+0	5.139000E-1	1.000000E+3	2.220777E+2
1.116420E-4	-2.010000E-5	1.024000E+1	5.139000E-1	1.260000E+3	2.220761E+2
1.093380E-4	-2.119000E-5	1.091000E+1	5.139000E-1	1.580000E+3	2.220717E+2
1.064500E-4	-2.289600E-5	1.210000E+1	5.139000E-1	1.990000E+3	2.220799E+2
1.031240E-4	-2.428800E-5	1.319000E+1	5.139000E-1	2.510000E+3	2.220688E+2
1.000840E-4	-2.606200E-5	1.455000E+1	5.139000E-1	3.160000E+3	2.220693E+2
1.015660E-4	-2.826000E-5	1.554000E+1	5.138000E-1	3.980000E+3	2.220721E+2
9.977000E-5	-3.239000E-5	1.798000E+1	5.138000E-1	5.010000E+3	2.220740E+2
9.637600E-5	-3.905600E-5	2.207000E+1	5.137700E-1	6.310000E+3	2.220671E+2
9.017600E-5	-4.558600E-5	2.684000E+1	5.137000E-1	7.940000E+3	2.220779E+2
8.555600E-5	-4.848800E-5	2.951000E+1	5.136000E-1	1.000000E+4	2.220553E+2
7.562400E-5	-5.516000E-5	3.620000E+1	5.135000E-1	1.260000E+4	2.220788E+2
8.123400E-5	-6.276600E-5	3.778000E+1	5.133000E-1	1.580000E+4	2.220672E+2
7.606800E-5	-7.590600E-5	4.484000E+1	5.130000E-1	1.990000E+4	2.220674E+2
7.205600E-5	-8.133600E-5	4.849000E+1	5.129000E-1	2.200000E+4	2.220798E+2
					
Tsp[K]  	Tc[K]   	Ts[K]    	Rs[om]  	Po[mW]    	 Io[mA]
225.0000	225.0041	226.8854	 20.2975	 12.6859	 25.0000
					
U3x[V]  	U3y[V]  	Phase[deg]	|U1|[V]  	F[Hz]    	Ts[K]  
1.676520E-4	-2.452200E-5	8.280000E+0	5.117400E-1	6.310000E+0	2.268944E+2
1.654300E-4	-2.360400E-5	8.120000E+0	5.154900E-1	7.940000E+0	2.268889E+2
1.620680E-4	-2.321400E-5	8.180000E+0	5.171000E-1	1.000000E+1	2.269051E+2
1.599460E-4	-2.087400E-5	7.400000E+0	5.178000E-1	1.260000E+1	2.269070E+2
1.574760E-4	-1.983000E-5	7.210000E+0	5.180000E-1	1.580000E+1	2.269183E+2
1.548820E-4	-1.841600E-5	6.780000E+0	5.181000E-1	1.990000E+1	2.269168E+2
1.526640E-4	-1.760000E-5	6.570000E+0	5.182000E-1	2.510000E+1	2.269127E+2
1.505680E-4	-1.698000E-5	6.430000E+0	5.182000E-1	3.160000E+1	2.269092E+2
1.486120E-4	-1.637200E-5	6.310000E+0	5.182300E-1	3.980000E+1	2.269177E+2
1.465960E-4	-1.612200E-5	6.970000E+0	5.175600E-1	5.010000E+1	2.269120E+2
1.445180E-4	-1.628000E-5	6.440000E+0	5.182000E-1	6.310000E+1	2.269112E+2
1.424060E-4	-1.640800E-5	6.570000E+0	5.182000E-1	7.940000E+1	2.269126E+2
1.400260E-4	-1.670400E-5	6.830000E+0	5.182000E-1	1.000000E+2	2.269233E+2
1.375800E-4	-1.696600E-5	7.040000E+0	5.182000E-1	1.260000E+2	2.269030E+2
1.352340E-4	-1.721600E-5	7.270000E+0	5.182000E-1	1.580000E+2	2.269196E+2
1.326660E-4	-1.738600E-5	7.440000E+0	5.182000E-1	1.990000E+2	2.269018E+2
1.301780E-4	-1.765000E-5	7.730000E+0	5.182000E-1	2.510000E+2	2.268943E+2
1.276240E-4	-1.783000E-5	7.950000E+0	5.182000E-1	3.160000E+2	2.269116E+2
1.250880E-4	-1.813400E-5	8.260000E+0	5.182000E-1	3.980000E+2	2.269132E+2
1.227280E-4	-1.842600E-5	8.520000E+0	5.182000E-1	5.010000E+2	2.269048E+2
1.203660E-4	-1.887400E-5	8.960000E+0	5.182000E-1	6.310000E+2	2.268962E+2
1.177920E-4	-1.936200E-5	9.300000E+0	5.182000E-1	7.940000E+2	2.269051E+2
1.154000E-4	-2.001000E-5	9.900000E+0	5.182000E-1	1.000000E+3	2.269043E+2
1.128680E-4	-2.076000E-5	1.042000E+1	5.182000E-1	1.260000E+3	2.269023E+2
1.103420E-4	-2.194600E-5	1.127000E+1	5.182000E-1	1.580000E+3	2.269079E+2
1.075280E-4	-2.356400E-5	1.232000E+1	5.182000E-1	1.990000E+3	2.269061E+2
1.041400E-4	-2.495400E-5	1.343000E+1	5.182000E-1	2.510000E+3	2.269113E+2
1.009980E-4	-2.677400E-5	1.486000E+1	5.182000E-1	3.160000E+3	2.269006E+2
1.023520E-4	-2.897200E-5	1.571000E+1	5.180700E-1	3.980000E+3	2.269097E+2
1.003720E-4	-3.324000E-5	1.838000E+1	5.181000E-1	5.010000E+3	2.269106E+2
9.670400E-5	-3.986400E-5	2.246000E+1	5.180000E-1	6.310000E+3	2.269096E+2
9.042800E-5	-4.626800E-5	2.697000E+1	5.179000E-1	7.940000E+3	2.269028E+2
8.093600E-5	-5.088800E-5	3.208000E+1	5.178300E-1	1.000000E+4	2.269148E+2
7.533000E-5	-5.594200E-5	3.663000E+1	5.177000E-1	1.260000E+4	2.269178E+2
8.164200E-5	-6.484400E-5	3.860000E+1	5.175700E-1	1.580000E+4	2.269007E+2
7.503400E-5	-7.610600E-5	4.546000E+1	5.173000E-1	1.990000E+4	2.269036E+2
7.118000E-5	-8.603400E-5	5.041000E+1	5.171000E-1	2.200000E+4	2.269123E+2
					
Tsp[K]  	Tc[K]   	Ts[K]    	Rs[om]  	Po[mW]    	 Io[mA]
230.0000	229.8458	230.9847	 20.4675	 12.7922	 25.0000
					
U3x[V]  	U3y[V]  	Phase[deg]	|U1|[V]  	F[Hz]    	Ts[K]  
1.708340E-4	-2.526600E-5	8.430000E+0	5.163200E-1	6.310000E+0	2.315809E+2
1.685850E-4	-2.413000E-5	8.170000E+0	5.200300E-1	7.940000E+0	2.316327E+2
1.654820E-4	-2.160200E-5	7.470000E+0	5.215000E-1	1.000000E+1	2.316592E+2
1.628460E-4	-2.137200E-5	7.470000E+0	5.221000E-1	1.260000E+1	2.316573E+2
1.601160E-4	-2.002000E-5	7.210000E+0	5.223000E-1	1.580000E+1	2.316545E+2
1.577060E-4	-1.890200E-5	6.840000E+0	5.224000E-1	1.990000E+1	2.316648E+2
1.553880E-4	-1.800000E-5	6.600000E+0	5.225000E-1	2.510000E+1	2.316819E+2
1.532540E-4	-1.745800E-5	6.510000E+0	5.225000E-1	3.160000E+1	2.316622E+2
1.512420E-4	-1.701800E-5	6.440000E+0	5.225000E-1	3.980000E+1	2.316556E+2
1.487540E-4	-1.725800E-5	5.560000E+0	5.249700E-1	5.010000E+1	2.316679E+2
1.469540E-4	-1.694200E-5	6.550000E+0	5.224400E-1	6.310000E+1	2.316578E+2
1.447800E-4	-1.711800E-5	6.730000E+0	5.224000E-1	7.940000E+1	2.316776E+2
1.423240E-4	-1.741400E-5	6.930000E+0	5.224000E-1	1.000000E+2	2.316691E+2
1.397480E-4	-1.762400E-5	7.180000E+0	5.224000E-1	1.260000E+2	2.316651E+2
1.371580E-4	-1.790400E-5	7.420000E+0	5.224300E-1	1.580000E+2	2.316657E+2
1.345320E-4	-1.804800E-5	7.600000E+0	5.224800E-1	1.990000E+2	2.316691E+2
1.319300E-4	-1.828800E-5	7.950000E+0	5.225000E-1	2.510000E+2	2.316570E+2
1.293640E-4	-1.851000E-5	8.190000E+0	5.225000E-1	3.160000E+2	2.316753E+2
1.267560E-4	-1.878600E-5	8.430000E+0	5.224400E-1	3.980000E+2	2.316546E+2
1.242280E-4	-1.915000E-5	8.730000E+0	5.224900E-1	5.010000E+2	2.316694E+2
1.216720E-4	-1.955000E-5	9.130000E+0	5.225000E-1	6.310000E+2	2.316744E+2
1.192040E-4	-2.002400E-5	9.480000E+0	5.224200E-1	7.940000E+2	2.316618E+2
1.166940E-4	-2.060200E-5	1.001000E+1	5.224000E-1	1.000000E+3	2.316529E+2
1.140440E-4	-2.149600E-5	1.069000E+1	5.224000E-1	1.260000E+3	2.316528E+2
1.115140E-4	-2.264400E-5	1.151000E+1	5.224000E-1	1.580000E+3	2.316666E+2
1.084580E-4	-2.425600E-5	1.257000E+1	5.224000E-1	1.990000E+3	2.316591E+2
1.049380E-4	-2.560200E-5	1.369000E+1	5.224000E-1	2.510000E+3	2.316666E+2
1.017880E-4	-2.752600E-5	1.524000E+1	5.224000E-1	3.160000E+3	2.316679E+2
1.022540E-4	-2.968600E-5	1.622000E+1	5.223000E-1	3.980000E+3	2.316609E+2
1.009900E-4	-3.398200E-5	1.867000E+1	5.223000E-1	5.010000E+3	2.316539E+2
7.338000E-5	-4.998600E-5	3.412000E+1	5.222000E-1	6.310000E+3	2.316646E+2
9.076000E-5	-4.704000E-5	2.744000E+1	5.221000E-1	7.940000E+3	2.316599E+2
8.408600E-5	-5.091600E-5	3.119000E+1	5.221000E-1	1.000000E+4	2.316541E+2
7.474200E-5	-5.662600E-5	3.711000E+1	5.220000E-1	1.260000E+4	2.316609E+2
8.085400E-5	-6.388800E-5	3.821000E+1	5.218000E-1	1.580000E+4	2.316653E+2
7.507400E-5	-7.686800E-5	4.563000E+1	5.215000E-1	1.990000E+4	2.316466E+2
7.114000E-5	-8.789000E-5	5.116000E+1	5.214000E-1	2.200000E+4	2.316558E+2
					
Tsp[K]  	Tc[K]   	Ts[K]    	Rs[om]  	Po[mW]    	 Io[mA]
235.0000	234.7463	235.4488	 20.6550	 12.9094	 25.0000
					
U3x[V]  	U3y[V]  	Phase[deg]	|U1|[V]  	F[Hz]    	Ts[K]  
1.742450E-4	-2.576000E-5	8.410000E+0	5.206300E-1	6.310000E+0	2.354548E+2
1.713400E-4	-2.460000E-5	8.170000E+0	5.240100E-1	7.940000E+0	2.355781E+2
1.683320E-4	-2.239600E-5	7.590000E+0	5.253000E-1	1.000000E+1	2.356037E+2
1.655180E-4	-2.178400E-5	7.490000E+0	5.258000E-1	1.260000E+1	2.355878E+2
1.627800E-4	-2.066200E-5	7.270000E+0	5.259700E-1	1.580000E+1	2.355859E+2
1.602500E-4	-1.943600E-5	6.920000E+0	5.260000E-1	1.990000E+1	2.355847E+2
1.579580E-4	-1.851200E-5	6.680000E+0	5.261000E-1	2.510000E+1	2.355891E+2
1.556840E-4	-1.794000E-5	6.560000E+0	5.261000E-1	3.160000E+1	2.355771E+2
1.535960E-4	-1.751600E-5	6.510000E+0	5.261000E-1	3.980000E+1	2.355566E+2
1.498440E-4	-1.807600E-5	4.970000E+0	5.266300E-1	5.010000E+1	2.355536E+2
1.492300E-4	-1.754200E-5	6.690000E+0	5.261000E-1	6.310000E+1	2.355514E+2
1.467980E-4	-1.775200E-5	6.910000E+0	5.261000E-1	7.940000E+1	2.355595E+2
1.443800E-4	-1.797400E-5	7.090000E+0	5.261000E-1	1.000000E+2	2.355374E+2
1.417100E-4	-1.826800E-5	7.330000E+0	5.261000E-1	1.260000E+2	2.355468E+2
1.390920E-4	-1.849400E-5	7.560000E+0	5.261100E-1	1.580000E+2	2.355415E+2
1.363960E-4	-1.868800E-5	7.790000E+0	5.262000E-1	1.990000E+2	2.355504E+2
1.336580E-4	-1.892800E-5	8.030000E+0	5.262000E-1	2.510000E+2	2.355311E+2
1.309540E-4	-1.911800E-5	8.330000E+0	5.262000E-1	3.160000E+2	2.355335E+2
1.283360E-4	-1.944000E-5	8.550000E+0	5.262000E-1	3.980000E+2	2.355355E+2
1.257100E-4	-1.968600E-5	8.960000E+0	5.262000E-1	5.010000E+2	2.355349E+2
1.231660E-4	-2.015000E-5	9.360000E+0	5.262000E-1	6.310000E+2	2.355306E+2
1.204280E-4	-2.064600E-5	9.780000E+0	5.262000E-1	7.940000E+2	2.355221E+2
1.177620E-4	-2.125800E-5	1.026000E+1	5.262000E-1	1.000000E+3	2.355351E+2
1.151420E-4	-2.214000E-5	1.087000E+1	5.262000E-1	1.260000E+3	2.355198E+2
1.125840E-4	-2.326200E-5	1.165000E+1	5.262000E-1	1.580000E+3	2.355461E+2
1.093800E-4	-2.498400E-5	1.283000E+1	5.262000E-1	1.990000E+3	2.355384E+2
1.056380E-4	-2.633200E-5	1.414000E+1	5.262000E-1	2.510000E+3	2.355332E+2
1.024540E-4	-2.832600E-5	1.537000E+1	5.262000E-1	3.160000E+3	2.355274E+2
1.038820E-4	-3.030600E-5	1.632000E+1	5.261000E-1	3.980000E+3	2.355366E+2
1.014400E-4	-3.491200E-5	1.901000E+1	5.262000E-1	5.010000E+3	2.355278E+2
9.751200E-5	-4.166200E-5	2.308000E+1	5.261000E-1	6.310000E+3	2.355348E+2
9.076800E-5	-4.779200E-5	2.774000E+1	5.261000E-1	7.940000E+3	2.355362E+2
8.472600E-5	-5.071800E-5	3.099000E+1	5.259700E-1	1.000000E+4	2.355374E+2
7.462800E-5	-5.769200E-5	3.762000E+1	5.259000E-1	1.260000E+4	2.355274E+2
8.045200E-5	-6.495200E-5	3.885000E+1	5.257000E-1	1.580000E+4	2.355375E+2
7.406600E-5	-7.890000E-5	4.693000E+1	5.254100E-1	1.990000E+4	2.355403E+2
6.821600E-5	-8.310400E-5	5.066000E+1	5.253000E-1	2.200000E+4	2.355422E+2
					
Tsp[K]  	Tc[K]   	Ts[K]    	Rs[om]  	Po[mW]    	 Io[mA]
240.0000	239.5578	240.2060	 20.9360	 13.0850	 25.0000
					
U3x[V]  	U3y[V]  	Phase[deg]	|U1|[V]  	F[Hz]    	Ts[K]  
-4.250940E-4	-7.996600E-5	1.694200E+2	5.269700E-1	6.310000E+0	2.398058E+2
1.759820E-4	-2.530200E-5	8.170000E+0	5.305200E-1	7.940000E+0	2.402143E+2
1.710620E-4	-2.228000E-5	7.480000E+0	5.309900E-1	1.000000E+1	2.402617E+2
1.692740E-4	-2.222800E-5	7.480000E+0	5.310900E-1	1.260000E+1	2.401741E+2
1.668080E-4	-2.130600E-5	7.330000E+0	5.311000E-1	1.580000E+1	2.401557E+2
1.640000E-4	-1.996600E-5	6.920000E+0	5.311000E-1	1.990000E+1	2.401732E+2
1.614220E-4	-1.910000E-5	6.750000E+0	5.311000E-1	2.510000E+1	2.401877E+2
1.590660E-4	-1.859600E-5	6.670000E+0	5.311000E-1	3.160000E+1	2.402181E+2
1.568340E-4	-1.823600E-5	6.620000E+0	5.311400E-1	3.980000E+1	2.401947E+2
1.540760E-4	-1.756000E-5	6.790000E+0	5.301400E-1	5.010000E+1	2.402056E+2
1.523740E-4	-1.839200E-5	6.880000E+0	5.312000E-1	6.310000E+1	2.402171E+2
1.497240E-4	-1.854600E-5	7.080000E+0	5.312000E-1	7.940000E+1	2.402136E+2
1.471900E-4	-1.889200E-5	7.310000E+0	5.312200E-1	1.000000E+2	2.402050E+2
1.442880E-4	-1.907600E-5	7.510000E+0	5.312000E-1	1.260000E+2	2.402220E+2
1.415940E-4	-1.930000E-5	7.770000E+0	5.312000E-1	1.580000E+2	2.402308E+2
1.386380E-4	-1.950000E-5	7.950000E+0	5.312000E-1	1.990000E+2	2.402278E+2
1.358940E-4	-1.972200E-5	8.290000E+0	5.312000E-1	2.510000E+2	2.402228E+2
1.331860E-4	-1.990000E-5	8.500000E+0	5.313000E-1	3.160000E+2	2.402321E+2
1.305820E-4	-2.037800E-5	8.890000E+0	5.313000E-1	3.980000E+2	2.402404E+2
1.276620E-4	-2.055600E-5	9.310000E+0	5.312300E-1	5.010000E+2	2.402386E+2
1.249000E-4	-2.094200E-5	9.470000E+0	5.313000E-1	6.310000E+2	2.402370E+2
1.222000E-4	-2.156800E-5	1.004000E+1	5.313000E-1	7.940000E+2	2.402337E+2
1.194280E-4	-2.209600E-5	1.059000E+1	5.313000E-1	1.000000E+3	2.402358E+2
1.166980E-4	-2.307000E-5	1.124000E+1	5.313000E-1	1.260000E+3	2.402368E+2
1.138180E-4	-2.416400E-5	1.195000E+1	5.313000E-1	1.580000E+3	2.402336E+2
1.105540E-4	-2.586600E-5	1.327000E+1	5.313000E-1	1.990000E+3	2.402383E+2
1.068340E-4	-2.728000E-5	1.435000E+1	5.313000E-1	2.510000E+3	2.402330E+2
1.038280E-4	-2.940000E-5	1.567000E+1	5.313000E-1	3.160000E+3	2.402384E+2
1.047580E-4	-3.122600E-5	1.672000E+1	5.312000E-1	3.980000E+3	2.402500E+2
1.023040E-4	-3.589200E-5	1.936000E+1	5.312300E-1	5.010000E+3	2.402399E+2
9.805400E-5	-4.270400E-5	2.353000E+1	5.312000E-1	6.310000E+3	2.402308E+2
9.104600E-5	-4.882800E-5	2.819000E+1	5.312000E-1	7.940000E+3	2.402365E+2
8.442000E-5	-5.130200E-5	3.131000E+1	5.310900E-1	1.000000E+4	2.402585E+2
7.417000E-5	-5.913600E-5	3.848000E+1	5.310000E-1	1.260000E+4	2.402460E+2
8.026000E-5	-6.545400E-5	3.932000E+1	5.308000E-1	1.580000E+4	2.402395E+2
7.302600E-5	-7.902400E-5	4.736000E+1	5.305000E-1	1.990000E+4	2.402482E+2
6.925800E-5	-8.685600E-5	5.137000E+1	5.304000E-1	2.200000E+4	2.402385E+2
					
Tsp[K]  	Tc[K]   	Ts[K]    	Rs[om]  	Po[mW]    	 Io[mA]
245.0000	244.9405	245.3014	 21.2165	 13.2603	 25.0000
					
U3x[V]  	U3y[V]  	Phase[deg]	|U1|[V]  	F[Hz]    	Ts[K]  
1.835450E-4	-2.739500E-5	8.520000E+0	5.336400E-1	6.310000E+0	2.447899E+2
1.796740E-4	-2.590600E-5	8.200000E+0	5.354000E-1	7.940000E+0	2.446656E+2
1.758720E-4	-2.255000E-5	7.330000E+0	5.359200E-1	1.000000E+1	2.449792E+2
1.729520E-4	-2.291400E-5	7.570000E+0	5.362200E-1	1.260000E+1	2.452151E+2
1.692040E-4	-2.151000E-5	7.340000E+0	5.363000E-1	1.580000E+1	2.452021E+2
1.675600E-4	-2.059600E-5	7.020000E+0	5.362500E-1	1.990000E+1	2.451384E+2
1.651220E-4	-1.969000E-5	6.830000E+0	5.362000E-1	2.510000E+1	2.450840E+2
1.625660E-4	-1.923800E-5	6.770000E+0	5.362000E-1	3.160000E+1	2.450691E+2
1.601800E-4	-1.892200E-5	6.760000E+0	5.361500E-1	3.980000E+1	2.450775E+2
1.593240E-4	-2.006200E-5	8.530000E+0	5.375900E-1	5.010000E+1	2.451194E+2
1.553380E-4	-1.914200E-5	7.010000E+0	5.362000E-1	6.310000E+1	2.451203E+2
1.528340E-4	-1.939000E-5	7.200000E+0	5.362000E-1	7.940000E+1	2.451206E+2
1.498980E-4	-1.969400E-5	7.490000E+0	5.362000E-1	1.000000E+2	2.451477E+2
1.469300E-4	-1.988800E-5	7.700000E+0	5.362000E-1	1.260000E+2	2.451312E+2
1.441100E-4	-2.014000E-5	7.960000E+0	5.362000E-1	1.580000E+2	2.451529E+2
1.411480E-4	-2.027200E-5	8.180000E+0	5.362000E-1	1.990000E+2	2.451634E+2
1.382880E-4	-2.051000E-5	8.430000E+0	5.363000E-1	2.510000E+2	2.451566E+2
1.352900E-4	-2.075600E-5	8.690000E+0	5.363000E-1	3.160000E+2	2.451531E+2
1.324740E-4	-2.101400E-5	9.040000E+0	5.363000E-1	3.980000E+2	2.451577E+2
1.296620E-4	-2.132800E-5	9.420000E+0	5.363000E-1	5.010000E+2	2.451425E+2
1.266920E-4	-2.174600E-5	9.660000E+0	5.363000E-1	6.310000E+2	2.451520E+2
1.239100E-4	-2.227600E-5	1.019000E+1	5.363000E-1	7.940000E+2	2.451533E+2
1.211720E-4	-2.291600E-5	1.066000E+1	5.363000E-1	1.000000E+3	2.451506E+2
1.181840E-4	-2.386400E-5	1.148000E+1	5.363000E-1	1.260000E+3	2.451501E+2
1.153460E-4	-2.480200E-5	1.214000E+1	5.363000E-1	1.580000E+3	2.451572E+2
1.119720E-4	-2.665200E-5	1.341000E+1	5.362000E-1	1.990000E+3	2.451724E+2
1.082780E-4	-2.826400E-5	1.480000E+1	5.363000E-1	2.510000E+3	2.451579E+2
1.049480E-4	-3.050800E-5	1.640000E+1	5.363000E-1	3.160000E+3	2.451794E+2
1.048680E-4	-3.250200E-5	1.737000E+1	5.362000E-1	3.980000E+3	2.451567E+2
1.031380E-4	-3.691600E-5	1.985000E+1	5.362000E-1	5.010000E+3	2.451660E+2
9.866600E-5	-4.369000E-5	2.372000E+1	5.361000E-1	6.310000E+3	2.451573E+2
9.160000E-5	-4.985000E-5	2.863000E+1	5.361000E-1	7.940000E+3	2.451766E+2
8.580200E-5	-5.534800E-5	3.278000E+1	5.360700E-1	1.000000E+4	2.451701E+2
7.401800E-5	-6.043400E-5	3.930000E+1	5.359000E-1	1.260000E+4	2.451708E+2
8.004400E-5	-6.627400E-5	3.973000E+1	5.357000E-1	1.580000E+4	2.451689E+2
7.303400E-5	-7.997600E-5	4.763000E+1	5.354000E-1	1.990000E+4	2.451776E+2
6.682600E-5	-9.120800E-5	5.383000E+1	5.352400E-1	2.200000E+4	2.451831E+2
					
Tsp[K]  	Tc[K]   	Ts[K]    	Rs[om]  	Po[mW]    	 Io[mA]
250.0000	250.2182	250.1934	 21.4828	 13.4267	 25.0000
					
U3x[V]  	U3y[V]  	Phase[deg]	|U1|[V]  	F[Hz]    	Ts[K]  
1.879300E-4	-2.819000E-5	8.530000E+0	5.396200E-1	6.310000E+0	2.495137E+2
1.839500E-4	-2.663000E-5	8.240000E+0	5.404000E-1	7.940000E+0	2.494784E+2
1.791550E-4	-2.503500E-5	7.870000E+0	5.407300E-1	1.000000E+1	2.497623E+2
1.771780E-4	-2.359600E-5	7.580000E+0	5.409000E-1	1.260000E+1	2.499117E+2
1.760560E-4	-2.211000E-5	7.030000E+0	5.409000E-1	1.580000E+1	2.499065E+2
1.708400E-4	-2.112400E-5	7.060000E+0	5.408400E-1	1.990000E+1	2.498538E+2
1.682480E-4	-2.035000E-5	6.940000E+0	5.408000E-1	2.510000E+1	2.498017E+2
1.658360E-4	-1.985200E-5	6.830000E+0	5.407000E-1	3.160000E+1	2.497679E+2
1.633960E-4	-1.956200E-5	6.860000E+0	5.407000E-1	3.980000E+1	2.497694E+2
1.623900E-4	-2.061000E-5	9.590000E+0	5.404900E-1	5.010000E+1	2.497992E+2
1.584020E-4	-1.989800E-5	7.120000E+0	5.411000E-1	6.310000E+1	2.499042E+2
1.556720E-4	-2.021000E-5	7.400000E+0	5.411000E-1	7.940000E+1	2.499092E+2
1.527200E-4	-2.045400E-5	7.600000E+0	5.411000E-1	1.000000E+2	2.499138E+2
1.496480E-4	-2.071000E-5	7.850000E+0	5.411000E-1	1.260000E+2	2.499318E+2
1.465940E-4	-2.096000E-5	8.120000E+0	5.411000E-1	1.580000E+2	2.499341E+2
1.441380E-4	-2.113800E-5	8.360000E+0	5.411000E-1	1.990000E+2	2.499445E+2
1.405800E-4	-2.127600E-5	8.590000E+0	5.411200E-1	2.510000E+2	2.499648E+2
1.374960E-4	-2.144000E-5	8.890000E+0	5.412000E-1	3.160000E+2	2.499676E+2
1.345540E-4	-2.173400E-5	9.160000E+0	5.412000E-1	3.980000E+2	2.499588E+2
1.315260E-4	-2.214800E-5	9.540000E+0	5.412000E-1	5.010000E+2	2.499740E+2
1.286140E-4	-2.245400E-5	9.880000E+0	5.412000E-1	6.310000E+2	2.499812E+2
1.256140E-4	-2.302000E-5	1.038000E+1	5.412000E-1	7.940000E+2	2.499632E+2
1.226740E-4	-2.363800E-5	1.087000E+1	5.412000E-1	1.000000E+3	2.499612E+2
1.197540E-4	-2.467400E-5	1.164000E+1	5.412000E-1	1.260000E+3	2.499670E+2
1.167260E-4	-2.594000E-5	1.246000E+1	5.412000E-1	1.580000E+3	2.499665E+2
1.132540E-4	-2.762400E-5	1.365000E+1	5.412000E-1	1.990000E+3	2.499690E+2
1.094920E-4	-2.910800E-5	1.478000E+1	5.412000E-1	2.510000E+3	2.499905E+2
1.065020E-4	-3.195000E-5	1.657000E+1	5.412000E-1	3.160000E+3	2.499817E+2
1.061440E-4	-3.315800E-5	1.737000E+1	5.411000E-1	3.980000E+3	2.499883E+2
1.039260E-4	-3.797600E-5	2.012000E+1	5.411000E-1	5.010000E+3	2.499904E+2
9.941200E-5	-4.479400E-5	2.426000E+1	5.410000E-1	6.310000E+3	2.499925E+2
9.198000E-5	-5.084000E-5	2.903000E+1	5.409500E-1	7.940000E+3	2.499910E+2
8.571200E-5	-5.544400E-5	3.292000E+1	5.409100E-1	1.000000E+4	2.499900E+2
7.367200E-5	-6.210200E-5	4.012000E+1	5.408000E-1	1.260000E+4	2.499936E+2
7.990200E-5	-6.754800E-5	4.024000E+1	5.405400E-1	1.580000E+4	2.500139E+2
7.240600E-5	-8.111200E-5	4.821000E+1	5.403000E-1	1.990000E+4	2.500025E+2
6.520200E-5	-8.849400E-5	5.367000E+1	5.401000E-1	2.200000E+4	2.499986E+2
					
Tsp[K]  	Tc[K]   	Ts[K]    	Rs[om]  	Po[mW]    	 Io[mA]
255.0000	255.4900	255.3564	 21.7400	 13.5875	 25.0000
					
U3x[V]  	U3y[V]  	Phase[deg]	|U1|[V]  	F[Hz]    	Ts[K]  
1.918500E-4	-2.871000E-5	8.500000E+0	5.459000E-1	6.310000E+0	2.551073E+2
1.873100E-4	-2.718500E-5	8.250000E+0	5.458000E-1	7.940000E+0	2.548788E+2
1.847350E-4	-2.585000E-5	8.020000E+0	5.456000E-1	1.000000E+1	2.546569E+2
1.802050E-4	-2.395000E-5	7.580000E+0	5.456000E-1	1.260000E+1	2.545647E+2
1.757700E-4	-2.429600E-5	8.080000E+0	5.457000E-1	1.580000E+1	2.546713E+2
1.745360E-4	-2.183200E-5	7.130000E+0	5.459000E-1	1.990000E+1	2.549813E+2
1.719220E-4	-2.098000E-5	6.980000E+0	5.459000E-1	2.510000E+1	2.549808E+2
1.693280E-4	-2.049000E-5	6.910000E+0	5.459000E-1	3.160000E+1	2.549391E+2
1.667420E-4	-2.035600E-5	6.990000E+0	5.458000E-1	3.980000E+1	2.548905E+2
1.623260E-4	-2.164400E-5	5.980000E+0	5.463200E-1	5.010000E+1	2.548450E+2
1.614340E-4	-2.065600E-5	7.310000E+0	5.458000E-1	6.310000E+1	2.549340E+2
1.584560E-4	-2.096600E-5	7.560000E+0	5.458000E-1	7.940000E+1	2.549417E+2
1.556800E-4	-2.130000E-5	7.880000E+0	5.458000E-1	1.000000E+2	2.549365E+2
1.526260E-4	-2.144400E-5	8.000000E+0	5.457000E-1	1.260000E+2	2.549073E+2
1.494760E-4	-2.172200E-5	8.250000E+0	5.457000E-1	1.580000E+2	2.549095E+2
1.457740E-4	-2.169000E-5	8.470000E+0	5.457000E-1	1.990000E+2	2.548940E+2
1.426220E-4	-2.197600E-5	8.770000E+0	5.457000E-1	2.510000E+2	2.549040E+2
1.396500E-4	-2.211200E-5	8.990000E+0	5.457000E-1	3.160000E+2	2.549021E+2
1.364720E-4	-2.243800E-5	9.380000E+0	5.457000E-1	3.980000E+2	2.548892E+2
1.333520E-4	-2.274800E-5	9.690000E+0	5.457000E-1	5.010000E+2	2.549083E+2
1.302400E-4	-2.321400E-5	1.012000E+1	5.457000E-1	6.310000E+2	2.549184E+2
1.273220E-4	-2.373800E-5	1.060000E+1	5.457000E-1	7.940000E+2	2.549324E+2
1.241820E-4	-2.444800E-5	1.111000E+1	5.457000E-1	1.000000E+3	2.549374E+2
1.211300E-4	-2.535800E-5	1.180000E+1	5.457000E-1	1.260000E+3	2.549414E+2
1.179960E-4	-2.677800E-5	1.275000E+1	5.457000E-1	1.580000E+3	2.549422E+2
1.143620E-4	-2.847800E-5	1.403000E+1	5.457000E-1	1.990000E+3	2.549532E+2
1.107400E-4	-2.988800E-5	1.503000E+1	5.457000E-1	2.510000E+3	2.549324E+2
1.078020E-4	-3.268800E-5	1.693000E+1	5.457000E-1	3.160000E+3	2.549260E+2
1.075720E-4	-3.350400E-5	1.738000E+1	5.456000E-1	3.980000E+3	2.549350E+2
1.046860E-4	-3.864000E-5	2.014000E+1	5.456000E-1	5.010000E+3	2.549403E+2
1.001300E-4	-4.577400E-5	2.444000E+1	5.455000E-1	6.310000E+3	2.549366E+2
9.252600E-5	-5.192000E-5	2.925000E+1	5.454000E-1	7.940000E+3	2.549403E+2
8.799800E-5	-5.594000E-5	3.255000E+1	5.454000E-1	1.000000E+4	2.549440E+2
7.347600E-5	-6.293800E-5	4.072000E+1	5.453000E-1	1.260000E+4	2.549559E+2
7.981400E-5	-6.755600E-5	4.025000E+1	5.450100E-1	1.580000E+4	2.549524E+2
7.186200E-5	-8.159000E-5	4.861000E+1	5.448000E-1	1.990000E+4	2.549725E+2
6.833600E-5	-8.950200E-5	5.259000E+1	5.446000E-1	2.200000E+4	2.549507E+2
					
Tsp[K]  	Tc[K]   	Ts[K]    	Rs[om]  	Po[mW]    	 Io[mA]
260.0000	260.6779	260.2089	 21.9645	 13.7278	 25.0000
					
U3x[V]  	U3y[V]  	Phase[deg]	|U1|[V]  	F[Hz]    	Ts[K]  
1.958250E-4	-2.946000E-5	8.500000E+0	5.509100E-1	6.310000E+0	2.600847E+2
1.913500E-4	-2.794000E-5	8.300000E+0	5.508000E-1	7.940000E+0	2.599267E+2
1.878500E-4	-2.742000E-5	8.330000E+0	5.507000E-1	1.000000E+1	2.597539E+2
1.838800E-4	-2.454000E-5	7.620000E+0	5.506000E-1	1.260000E+1	2.595974E+2
1.820050E-4	-2.567500E-5	8.040000E+0	5.505000E-1	1.580000E+1	2.594982E+2
1.780000E-4	-2.238800E-5	7.160000E+0	5.505000E-1	1.990000E+1	2.594696E+2
1.753360E-4	-2.158400E-5	7.040000E+0	5.506000E-1	2.510000E+1	2.595907E+2
1.728900E-4	-2.127400E-5	7.010000E+0	5.507000E-1	3.160000E+1	2.596754E+2
1.701580E-4	-2.108800E-5	7.070000E+0	5.507900E-1	3.980000E+1	2.597493E+2
1.662000E-4	-2.227800E-5	3.900000E+0	5.505500E-1	5.010000E+1	2.597496E+2
1.643880E-4	-2.143800E-5	7.490000E+0	5.505900E-1	6.310000E+1	2.596062E+2
1.613320E-4	-2.171800E-5	7.700000E+0	5.506000E-1	7.940000E+1	2.596230E+2
1.578500E-4	-2.187800E-5	7.880000E+0	5.506000E-1	1.000000E+2	2.596358E+2
1.548600E-4	-2.219800E-5	8.160000E+0	5.506000E-1	1.260000E+2	2.596713E+2
1.520000E-4	-2.255400E-5	8.430000E+0	5.506000E-1	1.580000E+2	2.596907E+2
1.489280E-4	-2.261600E-5	8.600000E+0	5.507000E-1	1.990000E+2	2.597036E+2
1.450540E-4	-2.273800E-5	8.910000E+0	5.507000E-1	2.510000E+2	2.597157E+2
1.418520E-4	-2.296000E-5	9.190000E+0	5.507000E-1	3.160000E+2	2.597137E+2
1.386480E-4	-2.323000E-5	9.540000E+0	5.507000E-1	3.980000E+2	2.597036E+2
1.353820E-4	-2.358000E-5	9.880000E+0	5.506000E-1	5.010000E+2	2.596945E+2
1.321920E-4	-2.395400E-5	1.032000E+1	5.506000E-1	6.310000E+2	2.596625E+2
1.289540E-4	-2.458000E-5	1.080000E+1	5.506000E-1	7.940000E+2	2.596801E+2
1.256780E-4	-2.530000E-5	1.128000E+1	5.506000E-1	1.000000E+3	2.596652E+2
1.225040E-4	-2.615800E-5	1.205000E+1	5.506000E-1	1.260000E+3	2.596752E+2
1.193940E-4	-2.754600E-5	1.288000E+1	5.506000E-1	1.580000E+3	2.596852E+2
1.157700E-4	-2.925600E-5	1.417000E+1	5.506000E-1	1.990000E+3	2.596684E+2
1.120660E-4	-3.067400E-5	1.541000E+1	5.506000E-1	2.510000E+3	2.596910E+2
1.091660E-4	-3.362200E-5	1.725000E+1	5.506000E-1	3.160000E+3	2.597003E+2
1.086200E-4	-3.451600E-5	1.771000E+1	5.505000E-1	3.980000E+3	2.597142E+2
1.056160E-4	-3.969200E-5	2.052000E+1	5.505000E-1	5.010000E+3	2.597170E+2
1.007140E-4	-4.668600E-5	2.490000E+1	5.504000E-1	6.310000E+3	2.597116E+2
9.303400E-5	-5.278000E-5	2.947000E+1	5.504000E-1	7.940000E+3	2.597120E+2
8.722800E-5	-5.522000E-5	3.235000E+1	5.503300E-1	1.000000E+4	2.597063E+2
7.364400E-5	-6.444200E-5	4.118000E+1	5.501000E-1	1.260000E+4	2.597069E+2
7.983800E-5	-6.848600E-5	4.048000E+1	5.499000E-1	1.580000E+4	2.596994E+2
7.160000E-5	-8.305600E-5	4.922000E+1	5.496000E-1	1.990000E+4	2.597154E+2
6.094200E-5	-9.021400E-5	5.595000E+1	5.495000E-1	2.200000E+4	2.597125E+2
					
Tsp[K]  	Tc[K]   	Ts[K]    	Rs[om]  	Po[mW]    	 Io[mA]
265.0000	265.8246	265.2143	 22.1743	 13.8589	 25.0000
					
U3x[V]  	U3y[V]  	Phase[deg]	|U1|[V]  	F[Hz]    	Ts[K]  
1.998250E-4	-3.021000E-5	8.610000E+0	5.560000E-1	6.310000E+0	2.651482E+2
1.953800E-4	-2.840000E-5	8.270000E+0	5.559000E-1	7.940000E+0	2.650358E+2
1.929250E-4	-2.653000E-5	7.930000E+0	5.558000E-1	1.000000E+1	2.649199E+2
1.877500E-4	-2.518000E-5	7.610000E+0	5.557000E-1	1.260000E+1	2.648074E+2
1.868100E-4	-2.359000E-5	6.650000E+0	5.556000E-1	1.580000E+1	2.647068E+2
1.814860E-4	-2.293200E-5	7.200000E+0	5.553000E-1	1.990000E+1	2.644538E+2
1.786560E-4	-2.227600E-5	7.170000E+0	5.552000E-1	2.510000E+1	2.644247E+2
1.758760E-4	-2.182800E-5	7.100000E+0	5.552000E-1	3.160000E+1	2.644559E+2
1.732180E-4	-2.175200E-5	7.160000E+0	5.553000E-1	3.980000E+1	2.645284E+2
1.713300E-4	-1.813000E-5	4.630000E+0	5.543900E-1	5.010000E+1	2.646030E+2
1.671940E-4	-2.221200E-5	7.600000E+0	5.550000E-1	6.310000E+1	2.645607E+2
1.638960E-4	-2.252000E-5	7.790000E+0	5.550000E-1	7.940000E+1	2.645314E+2
1.605560E-4	-2.266200E-5	8.020000E+0	5.549000E-1	1.000000E+2	2.645241E+2
1.571560E-4	-2.291200E-5	8.320000E+0	5.549000E-1	1.260000E+2	2.645175E+2
1.543320E-4	-2.323200E-5	8.540000E+0	5.549000E-1	1.580000E+2	2.645282E+2
1.505340E-4	-2.328200E-5	8.820000E+0	5.549000E-1	1.990000E+2	2.645233E+2
1.470700E-4	-2.348400E-5	9.090000E+0	5.549000E-1	2.510000E+2	2.645470E+2
1.437960E-4	-2.371200E-5	9.370000E+0	5.550000E-1	3.160000E+2	2.645638E+2
1.404260E-4	-2.391200E-5	9.690000E+0	5.550000E-1	3.980000E+2	2.645880E+2
1.370780E-4	-2.433200E-5	1.009000E+1	5.550000E-1	5.010000E+2	2.646112E+2
1.338400E-4	-2.470200E-5	1.051000E+1	5.550000E-1	6.310000E+2	2.646121E+2
1.305780E-4	-2.531000E-5	1.091000E+1	5.550000E-1	7.940000E+2	2.646206E+2
1.272400E-4	-2.595800E-5	1.146000E+1	5.550000E-1	1.000000E+3	2.646377E+2
1.239740E-4	-2.687800E-5	1.223000E+1	5.550000E-1	1.260000E+3	2.646224E+2
1.206500E-4	-2.836600E-5	1.307000E+1	5.550000E-1	1.580000E+3	2.646118E+2
1.169040E-4	-2.987200E-5	1.448000E+1	5.549000E-1	1.990000E+3	2.646155E+2
1.130560E-4	-3.168800E-5	1.558000E+1	5.549000E-1	2.510000E+3	2.646142E+2
1.101100E-4	-3.441400E-5	1.739000E+1	5.549000E-1	3.160000E+3	2.645997E+2
1.092260E-4	-3.522000E-5	1.769000E+1	5.548000E-1	3.980000E+3	2.645848E+2
1.063640E-4	-4.047000E-5	2.071000E+1	5.548000E-1	5.010000E+3	2.645785E+2
1.011020E-4	-4.741200E-5	2.522000E+1	5.547000E-1	6.310000E+3	2.645839E+2
9.326600E-5	-5.353400E-5	2.984000E+1	5.546000E-1	7.940000E+3	2.645727E+2
8.796000E-5	-5.937600E-5	3.411000E+1	5.545400E-1	1.000000E+4	2.645886E+2
7.331400E-5	-6.527200E-5	4.157000E+1	5.544000E-1	1.260000E+4	2.645974E+2
8.042200E-5	-7.047400E-5	4.101000E+1	5.542000E-1	1.580000E+4	2.646103E+2
7.155000E-5	-8.431800E-5	4.957000E+1	5.539000E-1	1.990000E+4	2.646135E+2
6.037800E-5	-9.421000E-5	5.728000E+1	5.538000E-1	2.200000E+4	2.646115E+2
					
Tsp[K]  	Tc[K]   	Ts[K]    	Rs[om]  	Po[mW]    	 Io[mA]
270.0000	270.9018	270.0240	 22.3780	 13.9863	 25.0000
					
U3x[V]  	U3y[V]  	Phase[deg]	|U1|[V]  	F[Hz]    	Ts[K]  
2.049300E-4	-2.949000E-5	8.200000E+0	5.605000E-1	6.310000E+0	2.699983E+2
2.002400E-4	-2.823000E-5	8.020000E+0	5.605000E-1	7.940000E+0	2.699469E+2
1.979100E-4	-2.708000E-5	7.840000E+0	5.604100E-1	1.000000E+1	2.698608E+2
1.921100E-4	-2.554500E-5	7.650000E+0	5.604000E-1	1.260000E+1	2.697661E+2
1.892500E-4	-2.324000E-5	7.030000E+0	5.602000E-1	1.580000E+1	2.695875E+2
1.853900E-4	-2.346000E-5	7.210000E+0	5.600000E-1	1.990000E+1	2.694290E+2
1.822450E-4	-2.297500E-5	7.180000E+0	5.600000E-1	2.510000E+1	2.693706E+2
1.793150E-4	-2.270000E-5	7.220000E+0	5.599000E-1	3.160000E+1	2.693172E+2
1.763900E-4	-2.260000E-5	7.340000E+0	5.598500E-1	3.980000E+1	2.692838E+2
1.710240E-4	-2.338400E-5	2.490000E+0	5.591900E-1	5.010000E+1	2.692353E+2
1.702680E-4	-2.305800E-5	7.770000E+0	5.599200E-1	6.310000E+1	2.693469E+2
1.669620E-4	-2.338200E-5	7.950000E+0	5.599400E-1	7.940000E+1	2.693531E+2
1.634000E-4	-2.349000E-5	8.150000E+0	5.600000E-1	1.000000E+2	2.693862E+2
1.599620E-4	-2.372200E-5	8.450000E+0	5.600000E-1	1.260000E+2	2.693854E+2
1.570020E-4	-2.406400E-5	8.720000E+0	5.600000E-1	1.580000E+2	2.693997E+2
1.529640E-4	-2.411000E-5	8.950000E+0	5.600000E-1	1.990000E+2	2.694023E+2
1.494120E-4	-2.422400E-5	9.190000E+0	5.599900E-1	2.510000E+2	2.693947E+2
1.459280E-4	-2.440600E-5	9.500000E+0	5.599000E-1	3.160000E+2	2.693617E+2
1.425200E-4	-2.483600E-5	9.910000E+0	5.599000E-1	3.980000E+2	2.693497E+2
1.390740E-4	-2.508800E-5	1.026000E+1	5.599000E-1	5.010000E+2	2.693644E+2
1.355980E-4	-2.545200E-5	1.062000E+1	5.599000E-1	6.310000E+2	2.693215E+2
1.322980E-4	-2.590600E-5	1.108000E+1	5.599000E-1	7.940000E+2	2.693200E+2
1.288100E-4	-2.672800E-5	1.182000E+1	5.599000E-1	1.000000E+3	2.693085E+2
1.253600E-4	-2.769200E-5	1.250000E+1	5.599000E-1	1.260000E+3	2.693133E+2
1.218460E-4	-2.895400E-5	1.338000E+1	5.599000E-1	1.580000E+3	2.693118E+2
1.181780E-4	-3.081600E-5	1.458000E+1	5.598000E-1	1.990000E+3	2.693128E+2
1.142900E-4	-3.233400E-5	1.576000E+1	5.599000E-1	2.510000E+3	2.693160E+2
1.103320E-4	-3.468800E-5	1.735000E+1	5.599000E-1	3.160000E+3	2.693154E+2
1.098460E-4	-3.644400E-5	1.841000E+1	5.597000E-1	3.980000E+3	2.693279E+2
1.072380E-4	-4.141400E-5	2.114000E+1	5.598000E-1	5.010000E+3	2.693554E+2
1.019020E-4	-4.856000E-5	2.549000E+1	5.598000E-1	6.310000E+3	2.693633E+2
9.385400E-5	-5.449000E-5	3.023000E+1	5.597000E-1	7.940000E+3	2.693661E+2
8.539200E-5	-6.028400E-5	3.540000E+1	5.596700E-1	1.000000E+4	2.693777E+2
7.319000E-5	-6.590200E-5	4.190000E+1	5.595000E-1	1.260000E+4	2.693815E+2
8.041000E-5	-7.205800E-5	4.190000E+1	5.593000E-1	1.580000E+4	2.693831E+2
7.103400E-5	-8.443600E-5	5.000000E+1	5.590000E-1	1.990000E+4	2.693870E+2
6.577000E-5	-9.326200E-5	5.480000E+1	5.588000E-1	2.200000E+4	2.693796E+2
					
Tsp[K]  	Tc[K]   	Ts[K]    	Rs[om]  	Po[mW]    	 Io[mA]
275.0000	275.9776	275.1330	 22.5360	 14.0850	 25.0000
					
U3x[V]  	U3y[V]  	Phase[deg]	|U1|[V]  	F[Hz]    	Ts[K]  
2.094350E-4	-3.032000E-5	8.250000E+0	5.658600E-1	6.310000E+0	2.751453E+2
2.046050E-4	-2.899000E-5	8.070000E+0	5.659000E-1	7.940000E+0	2.751179E+2
1.988050E-4	-2.641500E-5	7.650000E+0	5.659000E-1	1.000000E+1	2.750657E+2
1.964550E-4	-2.621000E-5	7.570000E+0	5.658400E-1	1.260000E+1	2.750028E+2
1.919650E-4	-2.628500E-5	7.900000E+0	5.657000E-1	1.580000E+1	2.748686E+2
1.896800E-4	-2.430500E-5	7.300000E+0	5.656000E-1	1.990000E+1	2.747677E+2
1.863900E-4	-2.370000E-5	7.280000E+0	5.655300E-1	2.510000E+1	2.747169E+2
1.833750E-4	-2.357500E-5	7.340000E+0	5.655000E-1	3.160000E+1	2.746306E+2
1.803150E-4	-2.348500E-5	7.390000E+0	5.654500E-1	3.980000E+1	2.746214E+2
1.792300E-4	-2.330600E-5	7.900000E+0	5.641300E-1	5.010000E+1	2.745741E+2
1.736250E-4	-2.392500E-5	7.840000E+0	5.653000E-1	6.310000E+1	2.744826E+2
1.700740E-4	-2.423000E-5	8.130000E+0	5.653000E-1	7.940000E+1	2.744946E+2
1.666980E-4	-2.436800E-5	8.270000E+0	5.653000E-1	1.000000E+2	2.744784E+2
1.628140E-4	-2.459200E-5	8.580000E+0	5.653000E-1	1.260000E+2	2.744613E+2
1.596880E-4	-2.488800E-5	8.880000E+0	5.652000E-1	1.580000E+2	2.744745E+2
1.555920E-4	-2.497400E-5	9.090000E+0	5.652100E-1	1.990000E+2	2.744424E+2
1.519420E-4	-2.508200E-5	9.410000E+0	5.652000E-1	2.510000E+2	2.744369E+2
1.483660E-4	-2.529200E-5	9.650000E+0	5.652000E-1	3.160000E+2	2.744497E+2
1.448360E-4	-2.564200E-5	1.004000E+1	5.652000E-1	3.980000E+2	2.744385E+2
1.411420E-4	-2.589000E-5	1.038000E+1	5.652000E-1	5.010000E+2	2.744227E+2
1.376740E-4	-2.639800E-5	1.091000E+1	5.652000E-1	6.310000E+2	2.744257E+2
1.340960E-4	-2.697200E-5	1.138000E+1	5.652000E-1	7.940000E+2	2.744268E+2
1.306420E-4	-2.757800E-5	1.194000E+1	5.652000E-1	1.000000E+3	2.744096E+2
1.270980E-4	-2.857800E-5	1.270000E+1	5.652000E-1	1.260000E+3	2.744053E+2
1.235740E-4	-2.998800E-5	1.374000E+1	5.652000E-1	1.580000E+3	2.744179E+2
1.195120E-4	-3.161800E-5	1.472000E+1	5.652000E-1	1.990000E+3	2.743959E+2
1.154160E-4	-3.314600E-5	1.609000E+1	5.652000E-1	2.510000E+3	2.743930E+2
1.123680E-4	-3.600600E-5	1.777000E+1	5.652000E-1	3.160000E+3	2.743959E+2
1.107140E-4	-3.721600E-5	1.852000E+1	5.650000E-1	3.980000E+3	2.743871E+2
1.081660E-4	-4.242600E-5	2.145000E+1	5.651000E-1	5.010000E+3	2.744029E+2
1.027880E-4	-4.949000E-5	2.578000E+1	5.650000E-1	6.310000E+3	2.743815E+2
9.429200E-5	-5.548000E-5	3.041000E+1	5.649000E-1	7.940000E+3	2.743931E+2
8.640600E-5	-6.102000E-5	3.529000E+1	5.648900E-1	1.000000E+4	2.743905E+2
7.367600E-5	-6.642800E-5	4.225000E+1	5.647000E-1	1.260000E+4	2.744036E+2
7.936200E-5	-7.107600E-5	4.178000E+1	5.645000E-1	1.580000E+4	2.743835E+2
7.037400E-5	-8.517200E-5	5.048000E+1	5.642000E-1	1.990000E+4	2.743925E+2
6.217800E-5	-9.152000E-5	5.581000E+1	5.640000E-1	2.200000E+4	2.743999E+2
					
Tsp[K]  	Tc[K]   	Ts[K]    	Rs[om]  	Po[mW]    	 Io[mA]
280.0000	281.0084	280.0442	 22.7450	 14.2156	 25.0000
					
U3x[V]  	U3y[V]  	Phase[deg]	|U1|[V]  	F[Hz]    	Ts[K]  
2.136900E-4	-3.110500E-5	8.290000E+0	5.711000E-1	6.310000E+0	2.800606E+2
2.088050E-4	-2.979000E-5	8.130000E+0	5.712000E-1	7.940000E+0	2.800405E+2
2.030400E-4	-2.877500E-5	8.010000E+0	5.712000E-1	1.000000E+1	2.799986E+2
2.006050E-4	-2.689500E-5	7.650000E+0	5.711300E-1	1.260000E+1	2.799474E+2
1.977200E-4	-2.689500E-5	7.030000E+0	5.711000E-1	1.580000E+1	2.798742E+2
1.936300E-4	-2.502000E-5	7.340000E+0	5.710000E-1	1.990000E+1	2.797761E+2
1.902900E-4	-2.447500E-5	7.320000E+0	5.709300E-1	2.510000E+1	2.797439E+2
1.872350E-4	-2.433000E-5	7.470000E+0	5.709000E-1	3.160000E+1	2.797010E+2
1.840500E-4	-2.438500E-5	7.560000E+0	5.708800E-1	3.980000E+1	2.796832E+2
1.800750E-4	-2.654500E-5	4.740000E+0	5.711600E-1	5.010000E+1	2.796664E+2
1.770840E-4	-2.493400E-5	8.020000E+0	5.707300E-1	6.310000E+1	2.795599E+2
1.734260E-4	-2.515200E-5	8.240000E+0	5.707000E-1	7.940000E+1	2.795655E+2
1.695880E-4	-2.541000E-5	8.560000E+0	5.707000E-1	1.000000E+2	2.795358E+2
1.657900E-4	-2.548000E-5	8.710000E+0	5.707000E-1	1.260000E+2	2.795357E+2
1.626900E-4	-2.586800E-5	9.040000E+0	5.707000E-1	1.580000E+2	2.795239E+2
1.583780E-4	-2.575600E-5	9.240000E+0	5.706800E-1	1.990000E+2	2.795176E+2
1.547220E-4	-2.609600E-5	9.570000E+0	5.706600E-1	2.510000E+2	2.794964E+2
1.509600E-4	-2.619400E-5	9.850000E+0	5.707000E-1	3.160000E+2	2.795214E+2
1.472900E-4	-2.656400E-5	1.023000E+1	5.707000E-1	3.980000E+2	2.795068E+2
1.435400E-4	-2.688800E-5	1.063000E+1	5.706000E-1	5.010000E+2	2.795079E+2
1.398580E-4	-2.726600E-5	1.101000E+1	5.706900E-1	6.310000E+2	2.794898E+2
1.361660E-4	-2.786600E-5	1.160000E+1	5.706400E-1	7.940000E+2	2.795113E+2
1.325840E-4	-2.851000E-5	1.214000E+1	5.706000E-1	1.000000E+3	2.794890E+2
1.289360E-4	-2.958400E-5	1.288000E+1	5.706000E-1	1.260000E+3	2.794819E+2
1.252800E-4	-3.102000E-5	1.399000E+1	5.706200E-1	1.580000E+3	2.794808E+2
1.210580E-4	-3.251600E-5	1.507000E+1	5.706000E-1	1.990000E+3	2.794725E+2
1.168500E-4	-3.423800E-5	1.634000E+1	5.706000E-1	2.510000E+3	2.794570E+2
1.137880E-4	-3.713200E-5	1.815000E+1	5.706000E-1	3.160000E+3	2.794665E+2
1.120860E-4	-3.815000E-5	1.864000E+1	5.705000E-1	3.980000E+3	2.794768E+2
1.093680E-4	-4.336400E-5	2.146000E+1	5.705000E-1	5.010000E+3	2.794642E+2
1.034660E-4	-5.039600E-5	2.590000E+1	5.704000E-1	6.310000E+3	2.794619E+2
9.487800E-5	-5.652800E-5	3.087000E+1	5.703000E-1	7.940000E+3	2.794514E+2
8.666200E-5	-5.968200E-5	3.451000E+1	5.702200E-1	1.000000E+4	2.794747E+2
7.299800E-5	-6.724600E-5	4.266000E+1	5.701000E-1	1.260000E+4	2.794578E+2
7.992800E-5	-7.344800E-5	4.264000E+1	5.699000E-1	1.580000E+4	2.794582E+2
7.023600E-5	-8.542600E-5	5.053000E+1	5.696000E-1	1.990000E+4	2.794530E+2
6.164000E-5	-9.115800E-5	5.587000E+1	5.694000E-1	2.200000E+4	2.794551E+2
					
Tsp[K]  	Tc[K]   	Ts[K]    	Rs[om]  	Po[mW]    	 Io[mA]
285.0000	285.9906	285.1322	 22.9575	 14.3484	 25.0000
					
U3x[V]  	U3y[V]  	Phase[deg]	|U1|[V]  	F[Hz]    	Ts[K]  
2.184150E-4	-3.194500E-5	8.310000E+0	5.764000E-1	6.310000E+0	2.851588E+2
2.136050E-4	-3.037500E-5	8.100000E+0	5.765000E-1	7.940000E+0	2.851331E+2
2.075600E-4	-2.923500E-5	8.230000E+0	5.765000E-1	1.000000E+1	2.850819E+2
2.048750E-4	-2.773000E-5	7.700000E+0	5.763800E-1	1.260000E+1	2.849319E+2
1.995000E-4	-2.638500E-5	8.180000E+0	5.763000E-1	1.580000E+1	2.848886E+2
1.977850E-4	-2.580000E-5	7.430000E+0	5.762000E-1	1.990000E+1	2.848068E+2
1.945250E-4	-2.540000E-5	7.410000E+0	5.762300E-1	2.510000E+1	2.847554E+2
1.913150E-4	-2.521500E-5	7.510000E+0	5.762000E-1	3.160000E+1	2.847490E+2
1.879550E-4	-2.528000E-5	7.660000E+0	5.761200E-1	3.980000E+1	2.846963E+2
1.868250E-4	-2.893500E-5	1.280000E+1	5.768900E-1	5.010000E+1	2.846788E+2
1.805200E-4	-2.587500E-5	8.120000E+0	5.759300E-1	6.310000E+1	2.845502E+2
1.765980E-4	-2.610200E-5	8.410000E+0	5.759000E-1	7.940000E+1	2.845245E+2
1.728580E-4	-2.642800E-5	8.650000E+0	5.759000E-1	1.000000E+2	2.845168E+2
1.689260E-4	-2.638800E-5	8.880000E+0	5.759000E-1	1.260000E+2	2.845031E+2
1.655880E-4	-2.670000E-5	9.150000E+0	5.758000E-1	1.580000E+2	2.844793E+2
1.611720E-4	-2.671000E-5	9.420000E+0	5.758000E-1	1.990000E+2	2.844699E+2
1.573160E-4	-2.696200E-5	9.720000E+0	5.758000E-1	2.510000E+2	2.844565E+2
1.534480E-4	-2.716800E-5	1.002000E+1	5.758000E-1	3.160000E+2	2.844486E+2
1.495960E-4	-2.740000E-5	1.041000E+1	5.758000E-1	3.980000E+2	2.844464E+2
1.456000E-4	-2.772400E-5	1.076000E+1	5.758000E-1	5.010000E+2	2.844378E+2
1.418300E-4	-2.814600E-5	1.115000E+1	5.758000E-1	6.310000E+2	2.844124E+2
1.381120E-4	-2.868800E-5	1.173000E+1	5.758000E-1	7.940000E+2	2.844095E+2
1.342600E-4	-2.942600E-5	1.237000E+1	5.758000E-1	1.000000E+3	2.844216E+2
1.304220E-4	-3.025600E-5	1.311000E+1	5.758000E-1	1.260000E+3	2.844162E+2
1.268320E-4	-3.184200E-5	1.418000E+1	5.758000E-1	1.580000E+3	2.844079E+2
1.222600E-4	-3.344400E-5	1.539000E+1	5.757000E-1	1.990000E+3	2.843819E+2
1.182520E-4	-3.491400E-5	1.646000E+1	5.757000E-1	2.510000E+3	2.843742E+2
1.145640E-4	-3.776000E-5	1.801000E+1	5.757000E-1	3.160000E+3	2.843798E+2
1.131740E-4	-3.903200E-5	1.926000E+1	5.756000E-1	3.980000E+3	2.843441E+2
1.100980E-4	-4.443800E-5	2.224000E+1	5.756000E-1	5.010000E+3	2.843528E+2
1.041760E-4	-5.145200E-5	2.641000E+1	5.755000E-1	6.310000E+3	2.843446E+2
9.544800E-5	-5.739000E-5	3.109000E+1	5.754000E-1	7.940000E+3	2.843400E+2
8.800800E-5	-6.313200E-5	3.577000E+1	5.753300E-1	1.000000E+4	2.843435E+2
7.276800E-5	-6.897000E-5	4.336000E+1	5.752000E-1	1.260000E+4	2.843406E+2
7.837800E-5	-7.316400E-5	4.305000E+1	5.749800E-1	1.580000E+4	2.843243E+2
7.075000E-5	-8.663800E-5	5.072000E+1	5.746700E-1	1.990000E+4	2.843194E+2
6.369200E-5	-9.571800E-5	5.642000E+1	5.745000E-1	2.200000E+4	2.843233E+2
					
Tsp[K]  	Tc[K]   	Ts[K]    	Rs[om]  	Po[mW]    	 Io[mA]
290.0000	290.9921	290.0594	 23.1630	 14.4769	 25.0000
					
U3x[V]  	U3y[V]  	Phase[deg]	|U1|[V]  	F[Hz]    	Ts[K]  
2.231150E-4	-3.273000E-5	8.340000E+0	5.817000E-1	6.310000E+0	2.900649E+2
2.178250E-4	-3.117000E-5	8.160000E+0	5.817000E-1	7.940000E+0	2.900170E+2
2.142400E-4	-2.834000E-5	7.730000E+0	5.817000E-1	1.000000E+1	2.899638E+2
2.092550E-4	-2.841500E-5	7.750000E+0	5.816000E-1	1.260000E+1	2.898447E+2
2.070600E-4	-2.821000E-5	7.070000E+0	5.815100E-1	1.580000E+1	2.897633E+2
2.019250E-4	-2.654000E-5	7.510000E+0	5.814000E-1	1.990000E+1	2.896218E+2
1.985050E-4	-2.601500E-5	7.510000E+0	5.813300E-1	2.510000E+1	2.895895E+2
1.950750E-4	-2.614000E-5	7.640000E+0	5.813000E-1	3.160000E+1	2.895393E+2
1.914950E-4	-2.608000E-5	7.780000E+0	5.812500E-1	3.980000E+1	2.895101E+2
1.852400E-4	-2.884500E-5	7.700000E+0	5.819600E-1	5.010000E+1	2.894639E+2
1.838700E-4	-2.676000E-5	8.290000E+0	5.810300E-1	6.310000E+1	2.893062E+2
1.798350E-4	-2.705500E-5	8.580000E+0	5.810000E-1	7.940000E+1	2.892671E+2
1.759240E-4	-2.718200E-5	8.780000E+0	5.809000E-1	1.000000E+2	2.892451E+2
1.717620E-4	-2.729600E-5	9.010000E+0	5.809000E-1	1.260000E+2	2.892070E+2
1.684980E-4	-2.760000E-5	9.290000E+0	5.809000E-1	1.580000E+2	2.891896E+2
1.638580E-4	-2.756200E-5	9.550000E+0	5.809000E-1	1.990000E+2	2.891966E+2
1.598680E-4	-2.778400E-5	9.850000E+0	5.809000E-1	2.510000E+2	2.892039E+2
1.558960E-4	-2.794000E-5	1.018000E+1	5.809000E-1	3.160000E+2	2.892079E+2
1.519940E-4	-2.835200E-5	1.056000E+1	5.810000E-1	3.980000E+2	2.892330E+2
1.480460E-4	-2.873200E-5	1.094000E+1	5.810000E-1	5.010000E+2	2.892344E+2
1.440040E-4	-2.903600E-5	1.138000E+1	5.810000E-1	6.310000E+2	2.892489E+2
1.401720E-4	-2.955200E-5	1.194000E+1	5.810000E-1	7.940000E+2	2.892777E+2
1.360920E-4	-3.028000E-5	1.258000E+1	5.810000E-1	1.000000E+3	2.892768E+2
1.324260E-4	-3.126600E-5	1.333000E+1	5.810800E-1	1.260000E+3	2.893182E+2
1.284160E-4	-3.270400E-5	1.436000E+1	5.811000E-1	1.580000E+3	2.893289E+2
1.238160E-4	-3.441200E-5	1.543000E+1	5.810000E-1	1.990000E+3	2.893271E+2
1.194720E-4	-3.592000E-5	1.677000E+1	5.810000E-1	2.510000E+3	2.893367E+2
1.160340E-4	-3.873200E-5	1.854000E+1	5.810000E-1	3.160000E+3	2.893167E+2
1.143600E-4	-3.991400E-5	1.919000E+1	5.809000E-1	3.980000E+3	2.893041E+2
1.111320E-4	-4.526400E-5	2.204000E+1	5.809000E-1	5.010000E+3	2.893208E+2
1.050280E-4	-5.238600E-5	2.648000E+1	5.808000E-1	6.310000E+3	2.893042E+2
9.611800E-5	-5.856800E-5	3.133000E+1	5.807000E-1	7.940000E+3	2.893084E+2
8.882600E-5	-6.126800E-5	3.475000E+1	5.806600E-1	1.000000E+4	2.892901E+2
7.344000E-5	-6.926600E-5	4.336000E+1	5.805000E-1	1.260000E+4	2.892751E+2
7.918800E-5	-7.451200E-5	4.317000E+1	5.802700E-1	1.580000E+4	2.892542E+2
7.056400E-5	-8.799600E-5	5.126000E+1	5.799000E-1	1.990000E+4	2.892618E+2
6.910600E-5	-9.438800E-5	5.374000E+1	5.798000E-1	2.200000E+4	2.892595E+2
					
Tsp[K]  	Tc[K]   	Ts[K]    	Rs[om]  	Po[mW]    	 Io[mA]
295.0000	295.9576	295.1123	 23.3710	 14.6069	 25.0000
					
U3x[V]  	U3y[V]  	Phase[deg]	|U1|[V]  	F[Hz]    	Ts[K]  
2.274900E-4	-3.354500E-5	8.370000E+0	5.870000E-1	6.310000E+0	2.951053E+2
2.223050E-4	-3.184500E-5	8.180000E+0	5.869300E-1	7.940000E+0	2.950257E+2
2.198350E-4	-3.046000E-5	7.880000E+0	5.869000E-1	1.000000E+1	2.949507E+2
2.133900E-4	-2.903500E-5	7.660000E+0	5.869000E-1	1.260000E+1	2.948439E+2
2.078650E-4	-2.712500E-5	8.090000E+0	5.866000E-1	1.580000E+1	2.946464E+2
2.061050E-4	-2.728500E-5	7.570000E+0	5.864800E-1	1.990000E+1	2.944368E+2
2.024450E-4	-2.702500E-5	7.620000E+0	5.864000E-1	2.510000E+1	2.944152E+2
1.988700E-4	-2.693000E-5	7.720000E+0	5.862000E-1	3.160000E+1	2.942626E+2
1.952400E-4	-2.709500E-5	7.910000E+0	5.862600E-1	3.980000E+1	2.942167E+2
1.921580E-4	-3.127000E-5	1.454000E+1	5.875300E-1	5.010000E+1	2.941807E+2
1.875550E-4	-2.775000E-5	8.400000E+0	5.863200E-1	6.310000E+1	2.943608E+2
1.834050E-4	-2.793000E-5	8.680000E+0	5.863000E-1	7.940000E+1	2.943865E+2
1.790650E-4	-2.818000E-5	8.970000E+0	5.863000E-1	1.000000E+2	2.943775E+2
1.749400E-4	-2.821000E-5	9.170000E+0	5.863000E-1	1.260000E+2	2.943748E+2
1.714640E-4	-2.850200E-5	9.450000E+0	5.862000E-1	1.580000E+2	2.943458E+2
1.666940E-4	-2.851800E-5	9.720000E+0	5.862000E-1	1.990000E+2	2.943159E+2
1.625200E-4	-2.869400E-5	1.007000E+1	5.862000E-1	2.510000E+2	2.943137E+2
1.584920E-4	-2.891400E-5	1.035000E+1	5.862000E-1	3.160000E+2	2.943113E+2
1.543240E-4	-2.931600E-5	1.076000E+1	5.862000E-1	3.980000E+2	2.942740E+2
1.502480E-4	-2.956400E-5	1.105000E+1	5.862000E-1	5.010000E+2	2.942737E+2
1.461620E-4	-2.997200E-5	1.160000E+1	5.862000E-1	6.310000E+2	2.942837E+2
1.422060E-4	-3.054400E-5	1.214000E+1	5.861900E-1	7.940000E+2	2.942734E+2
1.381700E-4	-3.127000E-5	1.269000E+1	5.861000E-1	1.000000E+3	2.942855E+2
1.339560E-4	-3.214200E-5	1.355000E+1	5.861900E-1	1.260000E+3	2.942983E+2
1.300160E-4	-3.366600E-5	1.447000E+1	5.862000E-1	1.580000E+3	2.943146E+2
1.253800E-4	-3.521400E-5	1.570000E+1	5.862000E-1	1.990000E+3	2.943309E+2
1.209580E-4	-3.678800E-5	1.683000E+1	5.862000E-1	2.510000E+3	2.943299E+2
1.173120E-4	-3.979600E-5	1.866000E+1	5.862000E-1	3.160000E+3	2.943421E+2
1.155640E-4	-4.094200E-5	1.951000E+1	5.860000E-1	3.980000E+3	2.943546E+2
1.120480E-4	-4.625200E-5	2.249000E+1	5.860000E-1	5.010000E+3	2.943430E+2
1.056700E-4	-5.324400E-5	2.683000E+1	5.860000E-1	6.310000E+3	2.943296E+2
9.661800E-5	-5.941400E-5	3.155000E+1	5.859000E-1	7.940000E+3	2.943297E+2
8.638600E-5	-6.618200E-5	3.754000E+1	5.857700E-1	1.000000E+4	2.943243E+2
7.306200E-5	-6.995600E-5	4.369000E+1	5.856000E-1	1.260000E+4	2.943004E+2
7.816200E-5	-7.495600E-5	4.392000E+1	5.854000E-1	1.580000E+4	2.943236E+2
6.990600E-5	-8.901400E-5	5.186000E+1	5.851000E-1	1.990000E+4	2.943190E+2
6.206800E-5	-9.380400E-5	5.657000E+1	5.849000E-1	2.200000E+4	2.943117E+2
					
Tsp[K]  	Tc[K]   	Ts[K]    	Rs[om]  	Po[mW]    	 Io[mA]
300.0000	300.9110	299.9662	 23.5810	 14.7381	 25.0000
					
U3x[V]  	U3y[V]  	Phase[deg]	|U1|[V]  	F[Hz]    	Ts[K]  
2.322250E-4	-3.430000E-5	8.400000E+0	5.920000E-1	6.310000E+0	2.999453E+2
2.270000E-4	-3.279000E-5	8.210000E+0	5.920000E-1	7.940000E+0	2.998621E+2
2.214800E-4	-3.325500E-5	8.530000E+0	5.919000E-1	1.000000E+1	2.997613E+2
2.178900E-4	-2.987000E-5	7.900000E+0	5.918200E-1	1.260000E+1	2.996465E+2
2.152150E-4	-2.743000E-5	7.040000E+0	5.916000E-1	1.580000E+1	2.993858E+2
2.102100E-4	-2.821000E-5	7.620000E+0	5.913000E-1	1.990000E+1	2.991360E+2
2.066600E-4	-2.770500E-5	7.670000E+0	5.912700E-1	2.510000E+1	2.990956E+2
2.030300E-4	-2.780500E-5	7.810000E+0	5.914000E-1	3.160000E+1	2.991199E+2
1.993400E-4	-2.801500E-5	8.010000E+0	5.914500E-1	3.980000E+1	2.991838E+2
1.986750E-4	-2.502500E-5	5.850000E+0	5.917900E-1	5.010000E+1	2.992531E+2
1.910950E-4	-2.876500E-5	8.550000E+0	5.914000E-1	6.310000E+1	2.992489E+2
1.867750E-4	-2.906500E-5	8.840000E+0	5.914000E-1	7.940000E+1	2.992201E+2
1.823650E-4	-2.908000E-5	9.080000E+0	5.913100E-1	1.000000E+2	2.991950E+2
1.780820E-4	-2.917400E-5	9.300000E+0	5.913000E-1	1.260000E+2	2.991835E+2
1.743550E-4	-2.950500E-5	9.610000E+0	5.913000E-1	1.580000E+2	2.991812E+2
1.695920E-4	-2.950600E-5	9.870000E+0	5.913000E-1	1.990000E+2	2.991978E+2
1.653660E-4	-2.969200E-5	1.020000E+1	5.913400E-1	2.510000E+2	2.992108E+2
1.611360E-4	-2.987200E-5	1.054000E+1	5.914000E-1	3.160000E+2	2.992372E+2
1.568660E-4	-3.017400E-5	1.089000E+1	5.914000E-1	3.980000E+2	2.992486E+2
1.525840E-4	-3.048400E-5	1.125000E+1	5.914000E-1	5.010000E+2	2.992659E+2
1.483380E-4	-3.095800E-5	1.173000E+1	5.914000E-1	6.310000E+2	2.992578E+2
1.442360E-4	-3.154800E-5	1.234000E+1	5.914000E-1	7.940000E+2	2.992772E+2
1.399120E-4	-3.216200E-5	1.303000E+1	5.914000E-1	1.000000E+3	2.992648E+2
1.357460E-4	-3.312200E-5	1.371000E+1	5.914000E-1	1.260000E+3	2.992505E+2
1.316860E-4	-3.458400E-5	1.467000E+1	5.914000E-1	1.580000E+3	2.992667E+2
1.267620E-4	-3.613000E-5	1.594000E+1	5.913000E-1	1.990000E+3	2.992356E+2
1.221580E-4	-3.758600E-5	1.716000E+1	5.913000E-1	2.510000E+3	2.992189E+2
1.184600E-4	-4.088600E-5	1.918000E+1	5.913000E-1	3.160000E+3	2.992243E+2
1.166160E-4	-4.191600E-5	1.972000E+1	5.912000E-1	3.980000E+3	2.992245E+2
1.128840E-4	-4.737800E-5	2.285000E+1	5.912000E-1	5.010000E+3	2.992492E+2
1.065080E-4	-5.430200E-5	2.724000E+1	5.911000E-1	6.310000E+3	2.992388E+2
9.699800E-5	-6.019800E-5	3.199000E+1	5.911000E-1	7.940000E+3	2.992422E+2
8.817000E-5	-6.133000E-5	3.492000E+1	5.909100E-1	1.000000E+4	2.992527E+2
7.244800E-5	-7.140800E-5	4.469000E+1	5.908000E-1	1.260000E+4	2.992675E+2
7.815600E-5	-7.606000E-5	4.403000E+1	5.906000E-1	1.580000E+4	2.992622E+2
6.995400E-5	-8.979800E-5	5.206000E+1	5.903000E-1	1.990000E+4	2.992483E+2
6.272800E-5	-9.509800E-5	5.663000E+1	5.901000E-1	2.200000E+4	2.992540E+2
					
Tsp[K]  	Tc[K]   	Ts[K]    	Rs[om]  	Po[mW]    	 Io[mA]
305.0000	305.8466	304.9658	 23.7800	 14.8625	 25.0000
					
U3x[V]  	U3y[V]  	Phase[deg]	|U1|[V]  	F[Hz]    	Ts[K]  
2.368550E-4	-3.503000E-5	8.400000E+0	5.971000E-1	6.310000E+0	3.048812E+2
2.315350E-4	-3.338500E-5	8.190000E+0	5.971000E-1	7.940000E+0	3.047788E+2
2.276150E-4	-3.353500E-5	8.330000E+0	5.970000E-1	1.000000E+1	3.046476E+2
2.221550E-4	-3.075000E-5	7.800000E+0	5.968600E-1	1.260000E+1	3.044737E+2
2.176800E-4	-2.647000E-5	7.040000E+0	5.965000E-1	1.580000E+1	3.041507E+2
2.146300E-4	-2.898000E-5	7.710000E+0	5.965000E-1	1.990000E+1	3.040714E+2
2.109550E-4	-2.872500E-5	7.710000E+0	5.966600E-1	2.510000E+1	3.041650E+2
2.072750E-4	-2.883000E-5	7.950000E+0	5.968000E-1	3.160000E+1	3.043456E+2
2.032800E-4	-2.899500E-5	8.110000E+0	5.967000E-1	3.980000E+1	3.043255E+2
1.967950E-4	-2.874500E-5	4.490000E+0	5.956200E-1	5.010000E+1	3.042985E+2
1.946800E-4	-2.972500E-5	8.700000E+0	5.965800E-1	6.310000E+1	3.041819E+2
1.902750E-4	-2.993000E-5	8.940000E+0	5.966000E-1	7.940000E+1	3.042132E+2
1.857550E-4	-3.003000E-5	9.210000E+0	5.965300E-1	1.000000E+2	3.042446E+2
1.812700E-4	-3.008500E-5	9.470000E+0	5.966000E-1	1.260000E+2	3.042547E+2
1.774680E-4	-3.035600E-5	9.720000E+0	5.966000E-1	1.580000E+2	3.042846E+2
1.724940E-4	-3.039400E-5	9.980000E+0	5.966000E-1	1.990000E+2	3.042849E+2
1.679660E-4	-3.061200E-5	1.031000E+1	5.966000E-1	2.510000E+2	3.042820E+2
1.635880E-4	-3.080200E-5	1.068000E+1	5.966000E-1	3.160000E+2	3.042717E+2
1.590740E-4	-3.109600E-5	1.105000E+1	5.966000E-1	3.980000E+2	3.042641E+2
1.548480E-4	-3.144800E-5	1.151000E+1	5.966000E-1	5.010000E+2	3.042524E+2
1.505780E-4	-3.184600E-5	1.200000E+1	5.966000E-1	6.310000E+2	3.042504E+2
1.462980E-4	-3.242600E-5	1.241000E+1	5.966000E-1	7.940000E+2	3.042286E+2
1.417320E-4	-3.310200E-5	1.319000E+1	5.965000E-1	1.000000E+3	3.042131E+2
1.374980E-4	-3.407800E-5	1.395000E+1	5.965000E-1	1.260000E+3	3.042093E+2
1.332700E-4	-3.546000E-5	1.488000E+1	5.965100E-1	1.580000E+3	3.042353E+2
1.282120E-4	-3.705000E-5	1.617000E+1	5.965000E-1	1.990000E+3	3.042277E+2
1.235240E-4	-3.867000E-5	1.741000E+1	5.965800E-1	2.510000E+3	3.042426E+2
1.196760E-4	-4.168200E-5	1.919000E+1	5.965000E-1	3.160000E+3	3.042486E+2
1.178580E-4	-4.266800E-5	1.989000E+1	5.964000E-1	3.980000E+3	3.042628E+2
1.140780E-4	-4.826000E-5	2.294000E+1	5.964000E-1	5.010000E+3	3.042672E+2
1.072480E-4	-5.518400E-5	2.729000E+1	5.963900E-1	6.310000E+3	3.042690E+2
9.760200E-5	-6.130400E-5	3.218000E+1	5.963000E-1	7.940000E+3	3.042450E+2
8.734400E-5	-6.674000E-5	3.746000E+1	5.962300E-1	1.000000E+4	3.042632E+2
7.288800E-5	-7.144800E-5	4.445000E+1	5.960000E-1	1.260000E+4	3.042507E+2
7.886800E-5	-7.670400E-5	4.424000E+1	5.958000E-1	1.580000E+4	3.042533E+2
7.006600E-5	-9.035600E-5	5.214000E+1	5.955000E-1	1.990000E+4	3.042469E+2
6.364600E-5	-9.787800E-5	5.695000E+1	5.953000E-1	2.200000E+4	3.042481E+2
					
Tsp[K]  	Tc[K]   	Ts[K]    	Rs[om]  	Po[mW]    	 Io[mA]
310.0000	310.8004	309.8034	 23.9865	 14.9916	 25.0000
					
U3x[V]  	U3y[V]  	Phase[deg]	|U1|[V]  	F[Hz]    	Ts[K]  
2.417500E-4	-3.582500E-5	8.430000E+0	6.023000E-1	6.310000E+0	3.097214E+2
2.362500E-4	-3.424500E-5	8.250000E+0	6.022000E-1	7.940000E+0	3.095851E+2
2.324850E-4	-3.407000E-5	8.470000E+0	6.020600E-1	1.000000E+1	3.094270E+2
2.266550E-4	-3.130500E-5	7.960000E+0	6.018900E-1	1.260000E+1	3.092045E+2
2.199100E-4	-2.943000E-5	7.420000E+0	6.016000E-1	1.580000E+1	3.089108E+2
2.190150E-4	-2.990000E-5	7.760000E+0	6.018000E-1	1.990000E+1	3.090405E+2
2.152300E-4	-2.956500E-5	7.820000E+0	6.019500E-1	2.510000E+1	3.091399E+2
2.112750E-4	-2.980500E-5	8.020000E+0	6.019000E-1	3.160000E+1	3.092181E+2
2.071000E-4	-3.000000E-5	8.210000E+0	6.018300E-1	3.980000E+1	3.091733E+2
2.055850E-4	-3.374000E-5	1.308000E+1	6.020300E-1	5.010000E+1	3.091204E+2
1.983350E-4	-3.068500E-5	8.770000E+0	6.018100E-1	6.310000E+1	3.091420E+2
1.936150E-4	-3.085500E-5	9.040000E+0	6.018000E-1	7.940000E+1	3.091712E+2
1.890300E-4	-3.096500E-5	9.320000E+0	6.018500E-1	1.000000E+2	3.091766E+2
1.843800E-4	-3.104000E-5	9.550000E+0	6.018000E-1	1.260000E+2	3.091726E+2
1.804700E-4	-3.133500E-5	9.840000E+0	6.018000E-1	1.580000E+2	3.091540E+2
1.753520E-4	-3.134000E-5	1.013000E+1	6.018000E-1	1.990000E+2	3.091452E+2
1.707080E-4	-3.163000E-5	1.045000E+1	6.017200E-1	2.510000E+2	3.091270E+2
1.662900E-4	-3.172600E-5	1.079000E+1	6.017000E-1	3.160000E+2	3.091172E+2
1.616180E-4	-3.211400E-5	1.124000E+1	6.017000E-1	3.980000E+2	3.091151E+2
1.571700E-4	-3.234600E-5	1.171000E+1	6.017000E-1	5.010000E+2	3.091137E+2
1.527780E-4	-3.280200E-5	1.214000E+1	6.017000E-1	6.310000E+2	3.091023E+2
1.483100E-4	-3.333000E-5	1.268000E+1	6.017000E-1	7.940000E+2	3.091027E+2
1.436800E-4	-3.406400E-5	1.327000E+1	6.017000E-1	1.000000E+3	3.091286E+2
1.392760E-4	-3.495200E-5	1.409000E+1	6.017000E-1	1.260000E+3	3.091439E+2
1.348140E-4	-3.643800E-5	1.517000E+1	6.017900E-1	1.580000E+3	3.091420E+2
1.297420E-4	-3.801000E-5	1.638000E+1	6.017000E-1	1.990000E+3	3.091606E+2
1.247760E-4	-3.953800E-5	1.755000E+1	6.017000E-1	2.510000E+3	3.091543E+2
1.209320E-4	-4.276800E-5	1.940000E+1	6.017000E-1	3.160000E+3	3.091468E+2
1.189620E-4	-4.378800E-5	2.037000E+1	6.016000E-1	3.980000E+3	3.091292E+2
1.150900E-4	-4.923800E-5	2.322000E+1	6.016000E-1	5.010000E+3	3.091359E+2
1.080560E-4	-5.629800E-5	2.738000E+1	6.015000E-1	6.310000E+3	3.091228E+2
9.826200E-5	-6.220000E-5	3.234000E+1	6.014000E-1	7.940000E+3	3.091289E+2
8.678600E-5	-6.735000E-5	3.781000E+1	6.013700E-1	1.000000E+4	3.091384E+2
7.233800E-5	-7.268600E-5	4.507000E+1	6.011900E-1	1.260000E+4	3.091398E+2
7.944600E-5	-7.918600E-5	4.497000E+1	6.009000E-1	1.580000E+4	3.091467E+2
6.937000E-5	-9.087000E-5	5.264000E+1	6.006000E-1	1.990000E+4	3.091562E+2
6.335400E-5	-1.001440E-4	5.776000E+1	6.004000E-1	2.200000E+4	3.091541E+2
					
Tsp[K]  	Tc[K]   	Ts[K]    	Rs[om]  	Po[mW]    	 Io[mA]
315.0000	315.7161	314.7195	 24.1865	 15.1166	 25.0000
					
U3x[V]  	U3y[V]  	Phase[deg]	|U1|[V]  	F[Hz]    	Ts[K]  
2.465300E-4	-3.669000E-5	8.440000E+0	6.073000E-1	6.310000E+0	3.145898E+2
2.407800E-4	-3.504000E-5	8.260000E+0	6.071000E-1	7.940000E+0	3.144136E+2
2.366650E-4	-3.242500E-5	7.780000E+0	6.070000E-1	1.000000E+1	3.142149E+2
2.312100E-4	-3.212000E-5	7.910000E+0	6.067900E-1	1.260000E+1	3.139777E+2
2.295250E-4	-3.287500E-5	7.710000E+0	6.067000E-1	1.580000E+1	3.138239E+2
2.234400E-4	-3.073000E-5	7.810000E+0	6.070000E-1	1.990000E+1	3.141341E+2
2.194300E-4	-3.034000E-5	7.910000E+0	6.070800E-1	2.510000E+1	3.141928E+2
2.153750E-4	-3.083000E-5	8.110000E+0	6.069000E-1	3.160000E+1	3.140991E+2
2.109500E-4	-3.090000E-5	8.340000E+0	6.068000E-1	3.980000E+1	3.140403E+2
2.071200E-4	-3.067500E-5	3.650000E+0	6.057200E-1	5.010000E+1	3.140177E+2
2.018800E-4	-3.169000E-5	8.920000E+0	6.068900E-1	6.310000E+1	3.141530E+2
1.970300E-4	-3.194000E-5	9.170000E+0	6.069000E-1	7.940000E+1	3.141345E+2
1.922100E-4	-3.193500E-5	9.440000E+0	6.068000E-1	1.000000E+2	3.141063E+2
1.874450E-4	-3.197500E-5	9.640000E+0	6.067000E-1	1.260000E+2	3.140706E+2
1.833900E-4	-3.226500E-5	9.960000E+0	6.067000E-1	1.580000E+2	3.140592E+2
1.781200E-4	-3.227000E-5	1.029000E+1	6.067000E-1	1.990000E+2	3.140830E+2
1.734760E-4	-3.246400E-5	1.063000E+1	6.068000E-1	2.510000E+2	3.140838E+2
1.689260E-4	-3.270000E-5	1.094000E+1	6.068000E-1	3.160000E+2	3.140895E+2
1.641980E-4	-3.303800E-5	1.138000E+1	6.068000E-1	3.980000E+2	3.141029E+2
1.594520E-4	-3.325800E-5	1.179000E+1	6.068000E-1	5.010000E+2	3.141201E+2
1.549160E-4	-3.376800E-5	1.229000E+1	6.068000E-1	6.310000E+2	3.141331E+2
1.502120E-4	-3.430600E-5	1.281000E+1	6.068000E-1	7.940000E+2	3.141409E+2
1.456440E-4	-3.493400E-5	1.357000E+1	6.067900E-1	1.000000E+3	3.141108E+2
1.409180E-4	-3.585600E-5	1.429000E+1	6.067100E-1	1.260000E+3	3.141239E+2
1.363260E-4	-3.734000E-5	1.536000E+1	6.067000E-1	1.580000E+3	3.140968E+2
1.310160E-4	-3.884400E-5	1.644000E+1	6.067000E-1	1.990000E+3	3.140975E+2
1.260600E-4	-4.039600E-5	1.776000E+1	6.067000E-1	2.510000E+3	3.140861E+2
1.221880E-4	-4.373800E-5	1.966000E+1	6.067000E-1	3.160000E+3	3.140875E+2
1.201740E-4	-4.465000E-5	2.049000E+1	6.065000E-1	3.980000E+3	3.140894E+2
1.160960E-4	-5.023800E-5	2.325000E+1	6.065300E-1	5.010000E+3	3.140894E+2
1.090020E-4	-5.717800E-5	2.768000E+1	6.065000E-1	6.310000E+3	3.140999E+2
9.888800E-5	-6.334200E-5	3.269000E+1	6.064000E-1	7.940000E+3	3.141196E+2
8.977600E-5	-6.736000E-5	3.685000E+1	6.063200E-1	1.000000E+4	3.141053E+2
7.237600E-5	-7.389200E-5	4.560000E+1	6.061000E-1	1.260000E+4	3.141107E+2
7.881800E-5	-7.896200E-5	4.505000E+1	6.059000E-1	1.580000E+4	3.140951E+2
6.982600E-5	-9.216600E-5	5.279000E+1	6.056000E-1	1.990000E+4	3.141056E+2
6.378400E-5	-1.031060E-4	5.823000E+1	6.054000E-1	2.200000E+4	3.141051E+2
					
Tsp[K]  	Tc[K]   	Ts[K]    	Rs[om]  	Po[mW]    	 Io[mA]
320.0000	320.6562	319.6528	 24.3745	 15.2341	 25.0000
					
U3x[V]  	U3y[V]  	Phase[deg]	|U1|[V]  	F[Hz]    	Ts[K]  
2.511500E-4	-3.733000E-5	8.470000E+0	6.121000E-1	6.310000E+0	3.194765E+2
2.454800E-4	-3.573000E-5	8.270000E+0	6.119400E-1	7.940000E+0	3.192757E+2
2.423200E-4	-3.473000E-5	8.230000E+0	6.117000E-1	1.000000E+1	3.190315E+2
2.358600E-4	-3.277000E-5	7.920000E+0	6.116000E-1	1.260000E+1	3.187877E+2
2.330150E-4	-3.334500E-5	7.600000E+0	6.117000E-1	1.580000E+1	3.188329E+2
2.278800E-4	-3.157500E-5	7.890000E+0	6.120000E-1	1.990000E+1	3.191980E+2
2.239100E-4	-3.140000E-5	8.020000E+0	6.119000E-1	2.510000E+1	3.191837E+2
2.191800E-4	-3.164000E-5	8.220000E+0	6.118000E-1	3.160000E+1	3.190400E+2
2.148300E-4	-3.195000E-5	8.470000E+0	6.117000E-1	3.980000E+1	3.189905E+2
2.082700E-4	-3.327000E-5	4.830000E+0	6.126700E-1	5.010000E+1	3.189679E+2
2.054100E-4	-3.258000E-5	9.040000E+0	6.117400E-1	6.310000E+1	3.191026E+2
2.005450E-4	-3.281000E-5	9.300000E+0	6.117000E-1	7.940000E+1	3.190744E+2
1.955950E-4	-3.297000E-5	9.540000E+0	6.116500E-1	1.000000E+2	3.190597E+2
1.906100E-4	-3.298000E-5	9.840000E+0	6.116000E-1	1.260000E+2	3.190445E+2
1.863450E-4	-3.325500E-5	1.013000E+1	6.116000E-1	1.580000E+2	3.190307E+2
1.809950E-4	-3.315500E-5	1.038000E+1	6.116000E-1	1.990000E+2	3.190338E+2
1.762660E-4	-3.342600E-5	1.074000E+1	6.116000E-1	2.510000E+2	3.190424E+2
1.714320E-4	-3.361200E-5	1.110000E+1	6.116000E-1	3.160000E+2	3.190686E+2
1.666040E-4	-3.394600E-5	1.155000E+1	6.116000E-1	3.980000E+2	3.190621E+2
1.618060E-4	-3.423200E-5	1.197000E+1	6.116000E-1	5.010000E+2	3.190801E+2
1.571000E-4	-3.473000E-5	1.248000E+1	6.116000E-1	6.310000E+2	3.191008E+2
1.522940E-4	-3.520800E-5	1.299000E+1	6.116000E-1	7.940000E+2	3.190949E+2
1.476240E-4	-3.592400E-5	1.365000E+1	6.116000E-1	1.000000E+3	3.190908E+2
1.427340E-4	-3.683800E-5	1.453000E+1	6.116000E-1	1.260000E+3	3.190791E+2
1.379080E-4	-3.825800E-5	1.547000E+1	6.116000E-1	1.580000E+3	3.190706E+2
1.324660E-4	-3.988000E-5	1.692000E+1	6.115000E-1	1.990000E+3	3.190589E+2
1.275000E-4	-4.130600E-5	1.783000E+1	6.115000E-1	2.510000E+3	3.190607E+2
1.235000E-4	-4.452000E-5	1.981000E+1	6.115000E-1	3.160000E+3	3.190677E+2
1.212500E-4	-4.570600E-5	2.080000E+1	6.113300E-1	3.980000E+3	3.190573E+2
1.169660E-4	-5.128200E-5	2.373000E+1	6.114000E-1	5.010000E+3	3.190579E+2
1.097020E-4	-5.805000E-5	2.800000E+1	6.113000E-1	6.310000E+3	3.190767E+2
9.937400E-5	-6.438400E-5	3.297000E+1	6.112000E-1	7.940000E+3	3.190950E+2
8.878000E-5	-6.900800E-5	3.771000E+1	6.110500E-1	1.000000E+4	3.190900E+2
7.257600E-5	-7.451000E-5	4.568000E+1	6.109000E-1	1.260000E+4	3.190762E+2
7.856200E-5	-7.959000E-5	4.555000E+1	6.107000E-1	1.580000E+4	3.190816E+2
6.982200E-5	-9.319200E-5	5.316000E+1	6.103000E-1	1.990000E+4	3.190709E+2
6.278600E-5	-1.005440E-4	5.798000E+1	6.102000E-1	2.200000E+4	3.190782E+2
					
Tsp[K]  	Tc[K]   	Ts[K]    	Rs[om]  	Po[mW]    	 Io[mA]
325.0000	325.5728	324.5680	 24.5650	 15.3531	 25.0000
					
U3x[V]  	U3y[V]  	Phase[deg]	|U1|[V]  	F[Hz]    	Ts[K]  
2.557500E-4	-3.805000E-5	8.470000E+0	6.167000E-1	6.310000E+0	3.243212E+2
2.501400E-4	-3.650000E-5	8.300000E+0	6.165000E-1	7.940000E+0	3.240677E+2
2.440750E-4	-3.299000E-5	7.730000E+0	6.163000E-1	1.000000E+1	3.238084E+2
2.407100E-4	-3.376000E-5	7.950000E+0	6.163000E-1	1.260000E+1	3.237024E+2
2.382600E-4	-3.550500E-5	8.430000E+0	6.167000E-1	1.580000E+1	3.241113E+2
2.322200E-4	-3.245000E-5	7.950000E+0	6.166000E-1	1.990000E+1	3.241000E+2
2.278450E-4	-3.234000E-5	8.130000E+0	6.164800E-1	2.510000E+1	3.240295E+2
2.235800E-4	-3.262000E-5	8.330000E+0	6.164100E-1	3.160000E+1	3.239579E+2
2.189400E-4	-3.320500E-5	8.600000E+0	6.164600E-1	3.980000E+1	3.239955E+2
2.129300E-4	-3.611500E-5	1.267000E+1	6.171300E-1	5.010000E+1	3.240578E+2
2.089600E-4	-3.362500E-5	9.170000E+0	6.162600E-1	6.310000E+1	3.239961E+2
2.038450E-4	-3.381500E-5	9.440000E+0	6.162300E-1	7.940000E+1	3.240100E+2
1.987650E-4	-3.387500E-5	9.680000E+0	6.163000E-1	1.000000E+2	3.240277E+2
1.937150E-4	-3.393000E-5	9.940000E+0	6.162000E-1	1.260000E+2	3.240467E+2
1.894550E-4	-3.421500E-5	1.024000E+1	6.162000E-1	1.580000E+2	3.240320E+2
1.837950E-4	-3.413500E-5	1.050000E+1	6.162000E-1	1.990000E+2	3.240471E+2
1.787650E-4	-3.433000E-5	1.084000E+1	6.162000E-1	2.510000E+2	3.240393E+2
1.738850E-4	-3.451500E-5	1.124000E+1	6.162000E-1	3.160000E+2	3.240254E+2
1.689240E-4	-3.492000E-5	1.168000E+1	6.162000E-1	3.980000E+2	3.240066E+2
1.640860E-4	-3.518600E-5	1.208000E+1	6.161900E-1	5.010000E+2	3.240046E+2
1.591040E-4	-3.559800E-5	1.268000E+1	6.161000E-1	6.310000E+2	3.240124E+2
1.542140E-4	-3.616600E-5	1.324000E+1	6.161000E-1	7.940000E+2	3.239914E+2
1.493080E-4	-3.674800E-5	1.386000E+1	6.161000E-1	1.000000E+3	3.240094E+2
1.445780E-4	-3.780600E-5	1.467000E+1	6.161000E-1	1.260000E+3	3.240266E+2
1.396080E-4	-3.916400E-5	1.571000E+1	6.161000E-1	1.580000E+3	3.240307E+2
1.338800E-4	-4.072600E-5	1.691000E+1	6.160000E-1	1.990000E+3	3.240307E+2
1.287160E-4	-4.231000E-5	1.824000E+1	6.160000E-1	2.510000E+3	3.240137E+2
1.245040E-4	-4.557200E-5	2.027000E+1	6.160000E-1	3.160000E+3	3.240250E+2
1.224980E-4	-4.664000E-5	2.084000E+1	6.158500E-1	3.980000E+3	3.240431E+2
1.180440E-4	-5.226800E-5	2.381000E+1	6.159000E-1	5.010000E+3	3.240306E+2
1.104140E-4	-5.911000E-5	2.824000E+1	6.158000E-1	6.310000E+3	3.240423E+2
9.992600E-5	-6.517000E-5	3.308000E+1	6.157000E-1	7.940000E+3	3.240422E+2
8.694600E-5	-6.860800E-5	3.830000E+1	6.156400E-1	1.000000E+4	3.240389E+2
7.177000E-5	-7.564400E-5	4.637000E+1	6.154000E-1	1.260000E+4	3.240133E+2
8.007200E-5	-8.215800E-5	4.577000E+1	6.151000E-1	1.580000E+4	3.240402E+2
6.941200E-5	-9.362400E-5	5.355000E+1	6.148000E-1	1.990000E+4	3.240173E+2
6.489400E-5	-1.006620E-4	5.714000E+1	6.146000E-1	2.200000E+4	3.240446E+2
**END	Date: 2019-04-18	Time: 08:16:31
